CaCO3   Chi2:  4.5613  CELL:    4.98941   4.98941  17.06603   90.0000   90.0000  120.0000   SPGR: R -3 C                 TEMP:      0.00
  1   2992     1.54060     1.54439     0.00000     0.01796     0.00000    0
   188     0     1
       0.00000      10.00000
 2Theta	Yobs	Ycal	Yobs-Ycal	Backg	Posr	(hkl)	K
     20.0165	  185.00	  160.33	 -947.58	  147.91
     20.0499	  207.00	  160.35	 -925.60	  147.89
     20.0834	  205.00	  160.36	 -927.61	  147.88
     20.1168	  223.00	  160.38	 -909.63	  147.87
     20.1502	  183.00	  160.39	 -949.64	  147.85
     20.1836	  212.00	  160.41	 -920.66	  147.84
     20.2170	  188.00	  160.42	 -944.67	  147.82
     20.2505	  201.00	  160.44	 -931.69	  147.81
     20.2839	  172.00	  160.46	 -960.71	  147.79
     20.3173	  172.00	  160.48	 -960.73	  147.78
     20.3507	  174.00	  160.50	 -958.75	  147.76
     20.3842	  175.00	  160.52	 -957.77	  147.74
     20.4176	  162.00	  160.54	 -970.79	  147.73
     20.4510	  178.00	  160.57	 -954.82	  147.71
     20.4844	  164.00	  161.87	 -970.12	  147.69
     20.5179	  183.00	  161.91	 -951.16	  147.68
     20.5513	  178.00	  162.59	 -956.84	  147.66
     20.5847	  187.00	  162.63	 -947.88	  147.64
     20.6181	  162.00	  162.68	 -972.93	  147.63
     20.6515	  188.00	  162.72	 -946.97	  147.61
     20.6850	  173.00	  162.77	 -962.02	  147.59
     20.7184	  174.00	  162.83	 -961.08	  147.57
     20.7518	  183.00	  162.88	 -952.13	  147.55
     20.7852	  167.00	  162.94	 -968.19	  147.53
     20.8187	  165.00	  163.00	 -970.25	  147.52
     20.8521	  177.00	  163.06	 -958.31	  147.50
     20.8855	  163.00	  163.13	 -972.38	  147.48
     20.9189	  172.00	  163.19	 -963.44	  147.46
     20.9523	  172.00	  163.27	 -963.52	  147.44
     20.9858	  175.00	  163.34	 -960.59	  147.42
     21.0192	  175.00	  163.42	 -960.67	  147.40
     21.0526	  163.00	  163.50	 -972.75	  147.38
     21.0860	  191.00	  163.59	 -944.84	  147.36
     21.1195	  182.00	  163.68	 -953.93	  147.33
     21.1529	  157.00	  163.78	 -979.03	  147.31
     21.1863	  177.00	  163.88	 -959.13	  147.29
     21.2197	  147.00	  163.99	 -989.24	  147.27
     21.2531	  179.00	  164.10	 -957.35	  147.25
     21.2866	  127.00	  164.22	-1009.47	  147.23
     21.3200	  140.00	  164.35	 -996.60	  147.20
     21.3534	  142.00	  164.48	 -994.73	  147.18
     21.3868	  155.00	  164.63	 -981.88	  147.16
     21.4203	  156.00	  164.78	 -981.03	  147.14
     21.4537	  167.00	  164.94	 -970.19	  147.11
     21.4871	  153.00	  165.11	 -984.36	  147.09
     21.5205	  152.00	  165.29	 -985.54	  147.07
     21.5539	  158.00	  165.49	 -979.74	  147.04
     21.5874	  161.00	  165.69	 -976.94	  147.02
     21.6208	  172.00	  165.92	 -966.17	  146.99
     21.6542	  144.00	  166.15	 -994.40	  146.97
     21.6876	  153.00	  166.41	 -985.66	  146.94
     21.7211	  136.00	  166.68	-1002.93	  146.92
     21.7545	  140.00	  166.97	 -999.22	  146.89
     21.7879	  146.00	  167.29	 -993.54	  146.87
     21.8213	  167.00	  167.63	 -972.88	  146.84
     21.8548	  150.00	  168.00	 -990.25	  146.82
     21.8882	  166.00	  168.39	 -974.64	  146.79
     21.9216	  180.00	  168.83	 -961.08	  146.77
     21.9550	  155.00	  169.29	 -986.54	  146.74
     21.9884	  159.00	  169.81	 -983.06	  146.71
     22.0219	  194.00	  170.36	 -948.61	  146.69
     22.0553	  153.00	  170.97	 -990.22	  146.66
     22.0887	  164.00	  171.64	 -979.89	  146.63
     22.1221	  168.00	  172.38	 -976.63	  146.60
     22.1556	  167.00	  173.20	 -978.45	  146.58
     22.1890	  125.00	  174.10	-1021.35	  146.55
     22.2224	  162.00	  175.12	 -985.37	  146.52
     22.2558	  160.00	  176.24	 -988.49	  146.49
     22.2892	  155.00	  177.49	 -994.74	  146.46
     22.3227	  152.00	  178.90	 -999.15	  146.44
     22.3561	  162.00	  180.47	 -990.72	  146.41
     22.3895	  192.00	  182.27	 -962.52	  146.38
     22.4229	  191.00	  184.31	 -965.56	  146.35
     22.4564	  161.00	  186.64	 -997.89	  146.32
     22.4898	  167.00	  189.34	 -994.59	  146.29
     22.5232	  189.00	  192.48	 -975.73	  146.26
     22.5566	  168.00	  196.16	-1000.41	  146.23
     22.5900	  175.00	  200.51	 -997.76	  146.20
     22.6235	  198.00	  205.70	 -979.95	  146.17
     22.6569	  199.00	  211.94	 -985.19	  146.14
     22.6903	  217.00	  219.50	 -974.75	  146.11
     22.7237	  230.00	  228.71	 -970.96	  146.08
     22.7572	  228.00	  239.96	 -984.21	  146.04
     22.7906	  238.00	  253.70	 -987.95	  146.01
     22.8240	  267.00	  270.42	 -975.67	  145.98
     22.8574	  286.00	  290.61	 -976.86	  145.95
     22.8909	  282.00	  314.58	-1004.83	  145.92
     22.9243	  299.00	  342.25	-1015.50	  145.88
     22.9577	  362.00	  372.73	 -982.98	  145.85
     22.9911	  365.00	  403.73	-1010.98	  145.82
     23.0245	  404.00	  431.29	 -999.54	  145.79
     23.0580	  396.00	  450.37	-1026.62	  145.75
     23.0914	  404.00	  456.67	-1024.92	  145.72
     23.1248	  402.00	  448.70	-1018.95	  145.69
     23.1582	  408.00	  428.56	 -992.81	  145.65
     23.1917	  342.00	  400.70	-1030.95	  145.62
     23.2251	  309.00	  369.89	-1033.14	  145.58
     23.2585	  332.00	  339.80	 -980.05	  145.55
     23.2919	  266.00	  312.55	-1018.80	  145.52
     23.3253	  274.00	  288.97	 -987.22	  145.48
     23.3588	  241.00	  269.13	-1000.38	  145.45
     23.3922	  230.00	  252.68	 -994.93	  145.41
     23.4256	  217.00	  239.17	 -994.42	  145.38
     23.4590	  210.00	  228.11	 -990.36	  145.34
     23.4925	  180.00	  219.06	-1011.31	  145.30
     23.5259	  175.00	  211.63	-1008.88	  145.27
     23.5593	  201.00	  205.49	 -976.74	  145.23
     23.5927	  182.00	  200.38	 -990.63	  145.20
     23.6261	  183.00	  196.11	 -985.36	  145.16
     23.6596	  190.00	  192.49	 -974.74	  145.12
     23.6930	  165.00	  189.40	 -996.65	  145.09
     23.7264	  145.00	  186.75	-1014.00	  145.05
     23.7598	  172.00	  184.45	 -984.70	  145.01
     23.7933	  153.00	  182.45	-1001.70	  144.97
     23.8267	  165.00	  180.70	 -987.95	  144.94
     23.8601	  157.00	  179.16	 -994.41	  144.90
     23.8935	  156.00	  177.79	 -994.04	  144.86
     23.9269	  147.00	  176.58	-1001.83	  144.82
     23.9604	  145.00	  175.49	-1002.74	  144.78
     23.9938	  177.00	  174.53	 -969.78	  144.75
     24.0272	  155.00	  173.66	 -990.91	  144.71
     24.0606	  149.00	  172.87	 -996.12	  144.67
     24.0941	  144.00	  172.17	-1000.42	  144.63
     24.1275	  156.00	  171.53	 -987.78	  144.59
     24.1609	  137.00	  170.95	-1006.20	  144.55
     24.1943	  127.00	  170.43	-1015.68	  144.51
     24.2278	  157.00	  169.95	 -985.20	  144.47
     24.2612	  145.00	  169.52	 -996.77	  144.43
     24.2946	  151.00	  169.12	 -990.37	  144.39
     24.3280	  156.00	  168.76	 -985.01	  144.35
     24.3614	  158.00	  168.43	 -982.68	  144.31
     24.3949	  157.00	  168.13	 -983.38	  144.27
     24.4283	  156.00	  167.85	 -984.10	  144.23
     24.4617	  150.00	  167.60	 -989.85	  144.19
     24.4951	  148.00	  167.37	 -991.62	  144.15
     24.5286	  128.00	  167.15	-1011.40	  144.10
     24.5620	  134.00	  166.96	-1005.21	  144.06
     24.5954	  144.00	  166.79	 -995.04	  144.02
     24.6288	  152.00	  166.63	 -986.88	  143.98
     24.6622	  132.00	  166.48	-1006.73	  143.94
     24.6957	  156.00	  166.35	 -982.60	  143.89
     24.7291	  139.00	  166.23	 -999.48	  143.85
     24.7625	  131.00	  166.13	-1007.38	  143.81
     24.7959	  132.00	  166.03	-1006.28	  143.77
     24.8294	  122.00	  165.95	-1016.20	  143.72
     24.8628	  141.00	  165.87	 -997.12	  143.68
     24.8962	  121.00	  165.81	-1017.06	  143.64
     24.9296	  159.00	  165.75	 -979.00	  143.59
     24.9630	  139.00	  165.70	 -998.95	  143.55
     24.9965	  137.00	  165.66	-1000.91	  143.50
     25.0299	  121.00	  165.63	-1016.88	  143.46
     25.0633	  139.00	  165.61	 -998.86	  143.42
     25.0967	  153.00	  165.60	 -984.85	  143.37
     25.1302	  148.00	  165.59	 -989.84	  143.33
     25.1636	  114.00	  165.59	-1023.84	  143.28
     25.1970	  134.00	  165.59	-1003.84	  143.24
     25.2304	  155.00	  165.60	 -982.85	  143.19
     25.2639	  128.00	  165.62	-1009.87	  143.15
     25.2973	  131.00	  165.65	-1006.90	  143.10
     25.3307	  152.00	  165.68	 -985.93	  143.06
     25.3641	  141.00	  165.72	 -996.97	  143.01
     25.3975	  142.00	  165.77	 -996.02	  142.96
     25.4310	  129.00	  165.82	-1009.07	  142.92
     25.4644	  142.00	  165.87	 -996.12	  142.87
     25.4978	  156.00	  165.94	 -982.19	  142.82
     25.5312	  178.00	  166.01	 -960.26	  142.78
     25.5647	  144.00	  166.09	 -994.34	  142.73
     25.5981	  144.00	  166.17	 -994.42	  142.68
     25.6315	  166.00	  166.26	 -972.51	  142.64
     25.6649	  162.00	  166.35	 -976.60	  142.59
     25.6983	  163.00	  166.46	 -975.71	  142.54
     25.7318	  162.00	  166.56	 -976.81	  142.49
     25.7652	  175.00	  166.68	 -963.93	  142.45
     25.7986	  171.00	  166.80	 -968.05	  142.40
     25.8320	  181.00	  166.93	 -958.18	  142.35
     25.8655	  170.00	  167.07	 -969.32	  142.30
     25.8989	  161.00	  167.21	 -978.46	  142.25
     25.9323	  210.00	  167.37	 -929.62	  142.20
     25.9657	  207.00	  167.52	 -932.77	  142.16
     25.9991	  224.00	  167.69	 -915.94	  142.11
     26.0326	  249.00	  167.87	 -891.12	  142.06
     26.0660	  248.00	  168.05	 -892.30	  142.01
     26.0994	  245.00	  168.41	 -895.66	  141.96
     26.1328	  273.00	  168.62	 -867.87	  141.91
     26.1663	  309.00	  168.83	 -832.08	  141.86
     26.1997	  351.00	  169.13	 -790.38	  141.81
     26.2331	  356.00	  169.37	 -785.62	  141.76
     26.2665	  348.00	  169.61	 -793.86	  141.71
     26.2999	  327.00	  169.86	 -815.11	  141.66
     26.3334	  334.00	  170.12	 -808.37	  141.61
     26.3668	  304.00	  170.40	 -838.65	  141.56
     26.4002	  298.00	  170.69	 -844.94	  141.50
     26.4336	  280.00	  170.99	 -863.24	  141.45
     26.4671	  289.00	  171.30	 -854.55	  141.40
     26.5005	  258.00	  171.63	 -885.88	  141.35
     26.5339	  248.00	  171.97	 -896.22	  141.30
     26.5673	  237.00	  172.32	 -907.57	  141.25
     26.6008	  243.00	  172.69	 -901.94	  141.20
     26.6342	  238.00	  173.08	 -907.33	  141.14
     26.6676	  207.00	  173.48	 -938.73	  141.09
     26.7010	  211.00	  173.90	 -935.15	  141.04
     26.7344	  214.00	  174.34	 -932.59	  140.99
     26.7679	  227.00	  174.79	 -920.04	  140.93
     26.8013	  220.00	  175.27	 -927.52	  140.88
     26.8347	  226.00	  175.77	 -922.02	  140.83
     26.8681	  212.00	  176.29	 -936.54	  140.77
     26.9016	  219.00	  176.84	 -930.09	  140.72
     26.9350	  228.00	  177.40	 -921.65	  140.67
     26.9684	  224.00	  178.00	 -926.25	  140.61
     27.0018	  252.00	  178.62	 -898.87	  140.56
     27.0352	  260.00	  179.27	 -891.52	  140.51
     27.0687	  235.00	  179.95	 -917.20	  140.45
     27.1021	  273.00	  180.66	 -879.91	  140.40
     27.1355	  243.00	  181.41	 -910.66	  140.34
     27.1689	  283.00	  182.19	 -871.44	  140.29
     27.2024	  252.00	  183.01	 -903.26	  140.23
     27.2358	  236.00	  183.87	 -920.12	  140.18
     27.2692	  251.00	  184.78	 -906.03	  140.12
     27.3026	  245.00	  185.72	 -912.97	  140.07
     27.3360	  229.00	  186.72	 -929.97	  140.01
     27.3695	  255.00	  187.77	 -905.02	  139.96
     27.4029	  208.00	  188.87	 -953.12	  139.90
     27.4363	  232.00	  190.03	 -930.28	  139.85
     27.4697	  205.00	  191.25	 -958.50	  139.79
     27.5032	  242.00	  192.53	 -922.78	  139.73
     27.5366	  220.00	  193.89	 -946.14	  139.68
     27.5700	  210.00	  195.32	 -957.57	  139.62
     27.6034	  205.00	  196.84	 -964.09	  139.57
     27.6369	  192.00	  198.44	 -978.69	  139.51
     27.6703	  212.00	  200.13	 -960.38	  139.45
     27.7037	  152.00	  201.92	-1022.17	  139.40
     27.7371	  181.00	  203.83	 -995.08	  139.34
     27.7705	  166.00	  205.84	-1012.09	  139.28
     27.8040	  152.00	  207.99	-1028.24	  139.22
     27.8374	  183.00	  210.27	 -999.52	  139.17
     27.8708	  186.00	  212.70	 -998.95	  139.11
     27.9042	  189.00	  215.29	 -998.54	  139.05
     27.9377	  190.00	  218.05	-1000.30	  138.99
     27.9711	  201.00	  221.00	 -992.25	  138.93
     28.0045	  202.00	  224.16	 -994.41	  138.88
     28.0379	  207.00	  227.55	 -992.80	  138.82
     28.0713	  196.00	  231.18	-1007.43	  138.76
     28.1048	  209.00	  235.08	 -998.33	  138.70
     28.1382	  207.00	  239.29	-1004.54	  138.64
     28.1716	  223.00	  243.82	 -993.07	  138.58
     28.2050	  222.00	  248.71	 -998.96	  138.52
     28.2385	  237.00	  254.01	 -989.26	  138.46
     28.2719	  266.00	  259.75	 -966.00	  138.41
     28.3053	  266.00	  265.99	 -972.24	  138.35
     28.3387	  249.00	  272.79	 -996.04	  138.29
     28.3721	  247.00	  280.20	-1005.45	  138.23
     28.4056	  299.00	  288.31	 -961.56	  138.17
     28.4390	  297.00	  297.21	 -972.46	  138.11
     28.4724	  305.00	  306.99	 -974.24	  138.05
     28.5058	  285.00	  317.77	-1005.02	  137.99
     28.5393	  322.00	  329.70	 -979.95	  137.93
     28.5727	  319.00	  342.93	 -996.18	  137.86
     28.6061	  335.00	  357.67	 -994.92	  137.80
     28.6395	  317.00	  374.14	-1029.39	  137.74
     28.6729	  344.00	  392.61	-1020.86	  137.68
     28.7064	  373.00	  413.43	-1012.68	  137.62
     28.7398	  413.00	  437.01	 -996.26	  137.56
     28.7732	  430.00	  463.86	-1006.11	  137.50
     28.8066	  468.00	  494.61	 -998.86	  137.44
     28.8401	  528.00	  530.05	 -974.30	  137.38
     28.8735	  586.00	  571.16	 -957.41	  137.31
     28.9069	  614.00	  619.17	 -977.42	  137.25
     28.9403	  630.00	  675.64	-1017.89	  137.19
     28.9738	  750.00	  742.42	 -964.67	  137.13
     29.0072	  849.00	  822.05	 -945.30	  137.07
     29.0406	  927.00	  916.85	 -962.10	  137.00
     29.0740	 1073.00	 1030.29	 -929.54	  136.94
     29.1074	 1261.00	 1166.07	 -877.32	  136.88
     29.1409	 1276.00	 1327.98	-1024.23	  136.81
     29.1743	 1610.00	 1519.85	 -882.10	  136.75
     29.2077	 1765.00	 1744.57	 -951.82	  136.69
     29.2411	 1969.00	 2002.36	-1005.61	  136.63
     29.2746	 2225.00	 2288.40	-1035.65	  136.56
     29.3080	 2633.00	 2589.16	 -928.41	  136.50
     29.3414	 3041.00	 2879.61	 -810.86	  136.43
     29.3748	 3506.00	 3123.80	 -590.05	  136.37
     29.4082	 3889.00	 3282.51	 -365.76	  136.31
     29.4417	 3749.00	 3326.74	 -549.99	  136.24
     29.4751	 3492.00	 3249.17	 -729.42	  136.18
     29.5085	 3176.00	 3066.25	 -862.50	  136.11
     29.5419	 2761.00	 2810.51	-1021.76	  136.05
     29.5754	 2417.00	 2518.94	-1074.19	  135.99
     29.6088	 2138.00	 2223.20	-1057.45	  135.92
     29.6422	 1842.00	 1944.82	-1075.07	  135.86
     29.6756	 1650.00	 1695.15	-1017.40	  135.79
     29.7090	 1468.00	 1478.04	 -982.29	  135.73
     29.7425	 1291.00	 1292.85	 -974.10	  135.66
     29.7759	 1126.00	 1136.66	 -982.91	  135.60
     29.8093	 1076.00	 1005.74	 -901.99	  135.53
     29.8427	  966.00	  896.25	 -902.50	  135.47
     29.8762	  950.00	  804.67	 -826.92	  135.40
     29.9096	  808.00	  727.87	 -892.12	  135.33
     29.9430	  776.00	  663.21	 -859.46	  135.27
     29.9764	  706.00	  608.46	 -874.71	  135.20
     30.0098	  663.00	  561.85	 -871.10	  135.14
     30.0433	  609.00	  521.88	 -885.13	  135.07
     30.0767	  596.00	  487.38	 -863.63	  135.00
     30.1101	  581.00	  457.41	 -848.66	  134.94
     30.1435	  559.00	  431.22	 -844.47	  134.87
     30.1770	  538.00	  408.19	 -842.44	  134.80
     30.2104	  509.00	  387.84	 -851.09	  134.74
     30.2438	  506.00	  369.78	 -836.03	  134.67
     30.2772	  445.00	  353.67	 -880.92	  134.60
     30.3107	  423.00	  339.26	 -888.51	  134.54
     30.3441	  391.00	  326.32	 -907.57	  134.47
     30.3775	  353.00	  314.67	 -933.92	  134.40
     30.4109	  374.00	  304.14	 -902.39	  134.33
     30.4443	  312.00	  294.60	 -954.85	  134.27
     30.4778	  313.00	  285.95	 -945.20	  134.20
     30.5112	  316.00	  278.08	 -934.33	  134.13
     30.5446	  305.00	  270.91	 -938.16	  134.06
     30.5780	  273.00	  264.37	 -963.62	  133.99
     30.6115	  241.00	  258.40	 -989.65	  133.93
     30.6449	  227.00	  252.95	 -998.20	  133.86
     30.6783	  216.00	  247.97	-1004.22	  133.79
     30.7117	  220.00	  243.43	 -995.68	  133.72
     30.7451	  224.00	  239.29	 -987.54	  133.65
     30.7786	  219.00	  235.54	 -988.79	  133.58
     30.8120	  222.00	  232.15	 -982.40	  133.51
     30.8454	  218.00	  229.10	 -983.35	  133.45
     30.8788	  213.00	  226.40	 -985.65	  133.38
     30.9123	  211.00	  224.04	 -985.29	  133.31
     30.9457	  187.00	  222.03	-1007.28	  133.24
     30.9791	  208.00	  220.38	 -984.63	  133.17
     31.0125	  194.00	  219.11	 -997.36	  133.10
     31.0459	  227.00	  218.27	 -963.52	  133.03
     31.0794	  252.00	  217.88	 -938.13	  132.96
     31.1128	  209.00	  218.00	 -981.25	  132.89
     31.1462	  226.00	  218.57	 -964.82	  132.82
     31.1796	  247.00	  219.88	 -945.13	  132.75
     31.2131	  233.00	  221.81	 -961.06	  132.68
     31.2465	  232.00	  224.50	 -964.75	  132.61
     31.2799	  223.00	  227.86	 -977.11	  132.54
     31.3133	  201.00	  231.73	-1002.98	  132.47
     31.3468	  209.00	  235.81	 -999.06	  132.40
     31.3802	  240.00	  239.56	 -971.81	  132.33
     31.4136	  259.00	  242.32	 -955.57	  132.26
     31.4470	  255.00	  243.43	 -960.68	  132.18
     31.4804	  236.00	  242.47	 -978.72	  132.11
     31.5139	  258.00	  239.40	 -953.65	  132.04
     31.5473	  245.00	  234.60	 -961.85	  131.97
     31.5807	  226.00	  228.63	 -974.88	  131.90
     31.6141	  197.00	  222.13	 -997.38	  131.83
     31.6476	  199.00	  215.63	 -988.88	  131.76
     31.6810	  180.00	  209.50	-1001.75	  131.68
     31.7144	  187.00	  203.93	 -989.18	  131.61
     31.7478	  171.00	  198.98	-1000.23	  131.54
     31.7812	  179.00	  194.65	 -987.90	  131.47
     31.8147	  163.00	  190.87	-1000.12	  131.40
     31.8481	  177.00	  187.59	 -982.84	  131.32
     31.8815	  171.00	  184.74	 -985.99	  131.25
     31.9149	  170.00	  182.25	 -984.50	  131.18
     31.9484	  142.00	  180.06	-1010.31	  131.11
     31.9818	  140.00	  178.13	-1010.38	  131.03
     32.0152	  168.00	  176.42	 -980.67	  130.96
     32.0486	  145.00	  174.88	-1002.13	  130.89
     32.0820	  129.00	  173.49	-1016.74	  130.82
     32.1155	  125.00	  172.23	-1019.48	  130.74
     32.1489	  146.00	  171.08	 -997.33	  130.67
     32.1823	  145.00	  170.17	 -997.42	  130.60
     32.2157	  139.00	  169.19	-1002.44	  130.52
     32.2492	  150.00	  168.29	 -990.54	  130.45
     32.2826	  148.00	  167.52	 -991.77	  130.38
     32.3160	  145.00	  166.73	 -993.98	  130.30
     32.3494	  149.00	  165.99	 -989.24	  130.23
     32.3829	  164.00	  165.29	 -973.54	  130.15
     32.4163	  148.00	  164.63	 -988.88	  130.08
     32.4497	  157.00	  164.01	 -979.26	  130.01
     32.4831	  129.00	  163.42	-1006.67	  129.93
     32.5165	  164.00	  162.86	 -971.11	  129.86
     32.5500	  141.00	  162.33	 -993.58	  129.78
     32.5834	  147.00	  161.82	 -987.07	  129.71
     32.6168	  157.00	  161.34	 -976.59	  129.64
     32.6502	  166.00	  160.88	 -967.13	  129.56
     32.6837	  180.00	  160.44	 -952.69	  129.49
     32.7171	  174.00	  160.02	 -958.27	  129.41
     32.7505	  161.00	  159.62	 -970.87	  129.34
     32.7839	  188.00	  159.23	 -943.48	  129.26
     32.8173	  167.00	  158.86	 -964.11	  129.19
     32.8508	  160.00	  158.51	 -970.76	  129.11
     32.8842	  190.00	  158.17	 -940.42	  129.04
     32.9176	  173.00	  157.84	 -957.09	  128.96
     32.9510	  208.00	  157.53	 -921.78	  128.89
     32.9845	  188.00	  157.23	 -941.48	  128.81
     33.0179	  203.00	  156.94	 -926.19	  128.73
     33.0513	  188.00	  156.66	 -940.91	  128.66
     33.0847	  211.00	  156.40	 -917.65	  128.58
     33.1181	  218.00	  156.14	 -910.39	  128.51
     33.1516	  211.00	  155.90	 -917.15	  128.43
     33.1850	  202.00	  155.67	 -925.92	  128.35
     33.2184	  225.00	  155.44	 -902.69	  128.28
     33.2518	  208.00	  155.23	 -919.48	  128.20
     33.2853	  204.00	  155.03	 -923.28	  128.13
     33.3187	  172.00	  154.83	 -955.08	  128.05
     33.3521	  173.00	  154.65	 -953.90	  127.97
     33.3855	  188.00	  154.47	 -938.72	  127.90
