CaCO3   Chi2:  2.2399  CELL:    4.98946   4.98946  17.06946   90.0000   90.0000  120.0000   SPGR: R -3 C                 TEMP:      0.00
  1   2992     1.54060     1.54439     0.00000    -0.05486     0.00000    0
   168     0     1
       0.00000      10.00000
 2Theta	Yobs	Ycal	Yobs-Ycal	Backg	Posr	(hkl)	K
     20.0165	  36.000	  38.491	-141.491	  36.933
     20.0499	  39.000	  38.425	-138.425	  36.866
     20.0834	  44.000	  38.360	-133.360	  36.798
     20.1168	  57.000	  38.294	-120.294	  36.731
     20.1502	  42.000	  38.229	-135.229	  36.663
     20.1836	  39.000	  38.164	-138.164	  36.596
     20.2170	  43.000	  38.100	-134.100	  36.529
     20.2505	  44.000	  38.035	-133.035	  36.462
     20.2839	  44.000	  37.971	-132.971	  36.395
     20.3173	  32.000	  37.907	-144.907	  36.328
     20.3507	  37.000	  37.843	-139.843	  36.262
     20.3842	  27.000	  37.779	-149.779	  36.195
     20.4176	  33.000	  37.715	-143.715	  36.129
     20.4510	  42.000	  37.652	-134.652	  36.062
     20.4844	  53.000	  37.589	-123.589	  35.996
     20.5179	  47.000	  37.526	-129.526	  35.930
     20.5513	  37.000	  37.464	-139.464	  35.864
     20.5847	  29.000	  37.401	-147.401	  35.798
     20.6181	  36.000	  37.339	-140.339	  35.732
     20.6515	  31.000	  37.277	-145.277	  35.666
     20.6850	  33.000	  37.216	-143.216	  35.601
     20.7184	  40.000	  37.155	-136.155	  35.535
     20.7518	  42.000	  37.094	-134.094	  35.470
     20.7852	  39.000	  37.033	-137.033	  35.404
     20.8187	  26.000	  36.973	-149.973	  35.339
     20.8521	  39.000	  36.913	-136.913	  35.274
     20.8855	  32.000	  36.853	-143.853	  35.209
     20.9189	  39.000	  36.794	-136.794	  35.144
     20.9523	  39.000	  36.735	-136.735	  35.079
     20.9858	  32.000	  36.676	-143.676	  35.015
     21.0192	  44.000	  36.618	-131.618	  34.950
     21.0526	  40.000	  36.561	-135.561	  34.886
     21.0860	  36.000	  36.503	-139.503	  34.821
     21.1195	  40.000	  36.447	-135.447	  34.757
     21.1529	  31.000	  36.390	-144.390	  34.693
     21.1863	  29.000	  36.335	-146.335	  34.629
     21.2197	  47.000	  36.280	-128.280	  34.565
     21.2531	  23.000	  36.225	-152.225	  34.501
     21.2866	  32.000	  36.171	-143.171	  34.437
     21.3200	  30.000	  36.118	-145.118	  34.374
     21.3534	  37.000	  36.066	-138.066	  34.310
     21.3868	  32.000	  36.014	-143.014	  34.247
     21.4203	  37.000	  35.963	-137.963	  34.183
     21.4537	  29.000	  35.913	-145.913	  34.120
     21.4871	  33.000	  35.864	-141.864	  34.057
     21.5205	  29.000	  35.816	-145.816	  33.994
     21.5539	  46.000	  35.770	-128.770	  33.931
     21.5874	  41.000	  35.724	-133.724	  33.868
     21.6208	  39.000	  35.680	-135.680	  33.806
     21.6542	  35.000	  35.637	-139.637	  33.743
     21.6876	  39.000	  35.596	-135.596	  33.680
     21.7211	  24.000	  35.556	-150.556	  33.618
     21.7545	  35.000	  35.519	-139.519	  33.556
     21.7879	  28.000	  35.484	-146.484	  33.494
     21.8213	  41.000	  35.450	-133.450	  33.431
     21.8548	  39.000	  35.420	-135.420	  33.369
     21.8882	  22.000	  35.392	-152.392	  33.308
     21.9216	  44.000	  35.368	-130.368	  33.246
     21.9550	  47.000	  35.347	-127.347	  33.184
     21.9884	  43.000	  35.330	-131.330	  33.123
     22.0219	  41.000	  35.318	-133.318	  33.061
     22.0553	  37.000	  35.311	-137.311	  33.000
     22.0887	  32.000	  35.310	-142.310	  32.938
     22.1221	  42.000	  35.315	-132.315	  32.877
     22.1556	  39.000	  35.328	-135.328	  32.816
     22.1890	  30.000	  35.526	-144.526	  32.755
     22.2224	  39.000	  35.560	-135.560	  32.694
     22.2558	  39.000	  35.694	-135.694	  32.633
     22.2892	  39.000	  35.754	-135.754	  32.573
     22.3227	  35.000	  35.831	-139.831	  32.512
     22.3561	  39.000	  35.928	-135.928	  32.452
     22.3895	  32.000	  36.049	-143.049	  32.391
     22.4229	  32.000	  36.198	-143.198	  32.331
     22.4564	  41.000	  36.382	-134.382	  32.271
     22.4898	  37.000	  36.610	-138.610	  32.211
     22.5232	  50.000	  36.892	-125.892	  32.151
     22.5566	  42.000	  37.244	-134.244	  32.091
     22.5900	  54.000	  37.688	-122.688	  32.031
     22.6235	  32.000	  38.253	-145.253	  31.971
     22.6569	  36.000	  38.981	-141.981	  31.912
     22.6903	  40.000	  39.926	-138.926	  31.852
     22.7237	  49.000	  41.159	-131.159	  31.793
     22.7572	  37.000	  42.766	-144.766	  31.734
     22.7906	  48.000	  44.846	-135.846	  31.675
     22.8240	  50.000	  47.498	-136.498	  31.615
     22.8574	  42.000	  50.788	-147.788	  31.556
     22.8909	  53.000	  54.681	-140.681	  31.498
     22.9243	  66.000	  58.909	-131.909	  31.439
     22.9577	  59.000	  62.832	-142.832	  31.380
     22.9911	  61.000	  65.488	-143.488	  31.322
     23.0245	  69.000	  66.040	-136.040	  31.263
     23.0580	  60.000	  64.321	-143.321	  31.205
     23.0914	  58.000	  60.904	-141.904	  31.146
     23.1248	  55.000	  56.701	-140.701	  31.088
     23.1582	  47.000	  52.502	-144.502	  31.030
     23.1917	  49.000	  48.764	-138.764	  30.972
     23.2251	  46.000	  45.645	-138.645	  30.914
     23.2585	  40.000	  43.137	-142.137	  30.856
     23.2919	  43.000	  41.156	-137.156	  30.799
     23.3253	  37.000	  39.605	-141.605	  30.741
     23.3588	  34.000	  38.390	-143.390	  30.683
     23.3922	  44.000	  37.431	-132.431	  30.626
     23.4256	  32.000	  36.665	-143.665	  30.569
     23.4590	  42.000	  36.044	-133.044	  30.511
     23.4925	  33.000	  35.530	-141.530	  30.454
     23.5259	  41.000	  35.099	-133.099	  30.397
     23.5593	  39.000	  34.731	-134.731	  30.340
     23.5927	  24.000	  34.413	-149.413	  30.284
     23.6261	  33.000	  34.135	-140.135	  30.227
     23.6596	  32.000	  33.888	-140.888	  30.170
     23.6930	  29.000	  33.668	-143.668	  30.114
     23.7264	  31.000	  33.471	-141.471	  30.057
     23.7598	  39.000	  33.291	-133.291	  30.001
     23.7933	  30.000	  33.127	-142.127	  29.945
     23.8267	  34.000	  32.977	-137.977	  29.888
     23.8601	  27.000	  32.837	-144.837	  29.832
     23.8935	  35.000	  32.708	-136.708	  29.776
     23.9269	  42.000	  32.586	-129.586	  29.720
     23.9604	  21.000	  32.472	-150.472	  29.665
     23.9938	  34.000	  32.368	-137.368	  29.609
     24.0272	  28.000	  32.266	-143.266	  29.553
     24.0606	  37.000	  32.171	-134.171	  29.498
     24.0941	  33.000	  32.079	-138.079	  29.442
     24.1275	  21.000	  31.990	-149.990	  29.387
     24.1609	  33.000	  31.906	-137.906	  29.332
     24.1943	  26.000	  31.824	-144.824	  29.277
     24.2278	  30.000	  31.745	-140.745	  29.222
     24.2612	  28.000	  31.669	-142.669	  29.167
     24.2946	  28.000	  31.595	-142.595	  29.112
     24.3280	  34.000	  31.523	-136.523	  29.057
     24.3614	  21.000	  31.453	-149.453	  29.003
     24.3949	  36.000	  31.385	-134.385	  28.948
     24.4283	  28.000	  31.319	-142.319	  28.894
     24.4617	  39.000	  31.254	-131.254	  28.839
     24.4951	  22.000	  31.191	-148.191	  28.785
     24.5286	  29.000	  31.129	-141.129	  28.731
     24.5620	  22.000	  31.068	-148.068	  28.677
     24.5954	  37.000	  31.009	-133.009	  28.623
     24.6288	  29.000	  30.950	-140.950	  28.569
     24.6622	  30.000	  30.893	-139.893	  28.515
     24.6957	  26.000	  30.837	-143.837	  28.461
     24.7291	  29.000	  30.781	-140.781	  28.408
     24.7625	  37.000	  30.727	-132.727	  28.354
     24.7959	  27.000	  30.673	-142.673	  28.301
     24.8294	  24.000	  30.620	-145.620	  28.247
     24.8628	  24.000	  30.568	-145.568	  28.194
     24.8962	  43.000	  30.517	-126.517	  28.141
     24.9296	  23.000	  30.466	-146.466	  28.088
     24.9630	  24.000	  30.416	-145.416	  28.035
     24.9965	  20.000	  30.367	-149.367	  27.982
     25.0299	  29.000	  30.319	-140.319	  27.929
     25.0633	  28.000	  30.271	-141.271	  27.876
     25.0967	  22.000	  30.224	-147.224	  27.824
     25.1302	  39.000	  30.177	-130.177	  27.771
     25.1636	  31.000	  30.132	-138.132	  27.719
     25.1970	  32.000	  30.086	-137.086	  27.667
     25.2304	  34.000	  30.042	-135.042	  27.614
     25.2639	  36.000	  29.998	-132.998	  27.562
     25.2973	  33.000	  29.955	-135.955	  27.510
     25.3307	  21.000	  29.912	-147.912	  27.458
     25.3641	  27.000	  29.870	-141.870	  27.406
     25.3975	  29.000	  29.828	-139.828	  27.354
     25.4310	  29.000	  29.787	-139.787	  27.303
     25.4644	  22.000	  29.747	-146.747	  27.251
     25.4978	  28.000	  29.707	-140.707	  27.200
     25.5312	  33.000	  29.668	-135.668	  27.148
     25.5647	  35.000	  29.630	-133.630	  27.097
     25.5981	  23.000	  29.592	-145.592	  27.046
     25.6315	  26.000	  29.555	-142.555	  26.994
     25.6649	  34.000	  29.519	-134.519	  26.943
     25.6983	  30.000	  29.483	-138.483	  26.892
     25.7318	  32.000	  29.448	-136.448	  26.842
     25.7652	  36.000	  29.414	-132.414	  26.791
     25.7986	  27.000	  29.380	-141.380	  26.740
     25.8320	  24.000	  29.348	-144.348	  26.689
     25.8655	  26.000	  29.316	-142.316	  26.639
     25.8989	  40.000	  29.284	-128.284	  26.589
     25.9323	  35.000	  29.254	-133.254	  26.538
     25.9657	  24.000	  29.224	-144.224	  26.488
     25.9991	  33.000	  29.195	-135.195	  26.438
     26.0326	  35.000	  29.167	-133.167	  26.388
     26.0660	  31.000	  29.140	-137.140	  26.338
     26.0994	  43.000	  29.114	-125.114	  26.288
     26.1328	  37.000	  29.088	-131.088	  26.238
     26.1663	  27.000	  29.064	-141.064	  26.188
     26.1997	  28.000	  29.041	-140.041	  26.139
     26.2331	  32.000	  29.019	-136.019	  26.089
     26.2665	  30.000	  28.997	-137.997	  26.040
     26.2999	  34.000	  28.977	-133.977	  25.990
     26.3334	  28.000	  28.958	-139.958	  25.941
     26.3668	  26.000	  28.941	-141.941	  25.892
     26.4002	  28.000	  28.924	-139.924	  25.843
     26.4336	  26.000	  28.909	-141.909	  25.794
     26.4671	  28.000	  28.895	-139.895	  25.745
     26.5005	  23.000	  28.883	-144.883	  25.696
     26.5339	  34.000	  28.872	-133.872	  25.647
     26.5673	  39.000	  28.862	-128.862	  25.598
     26.6008	  34.000	  28.854	-133.854	  25.550
     26.6342	  21.000	  28.848	-146.848	  25.501
     26.6676	  22.000	  28.843	-145.843	  25.453
     26.7010	  35.000	  28.841	-132.841	  25.405
     26.7344	  36.000	  28.840	-131.840	  25.356
     26.7679	  33.000	  28.841	-134.841	  25.308
     26.8013	  32.000	  28.844	-135.844	  25.260
     26.8347	  29.000	  28.850	-138.850	  25.212
     26.8681	  40.000	  28.857	-127.857	  25.164
     26.9016	  41.000	  28.868	-126.868	  25.117
     26.9350	  27.000	  28.880	-140.880	  25.069
     26.9684	  33.000	  28.896	-134.896	  25.021
     27.0018	  39.000	  28.914	-128.914	  24.974
     27.0352	  30.000	  28.935	-137.935	  24.926
     27.0687	  31.000	  28.959	-136.959	  24.879
     27.1021	  33.000	  28.987	-134.987	  24.832
     27.1355	  36.000	  29.018	-132.018	  24.784
     27.1689	  34.000	  29.052	-134.052	  24.737
     27.2024	  24.000	  29.091	-144.091	  24.690
     27.2358	  36.000	  29.134	-132.134	  24.643
     27.2692	  31.000	  29.181	-137.181	  24.597
     27.3026	  29.000	  29.233	-139.233	  24.550
     27.3360	  37.000	  29.290	-131.290	  24.503
     27.3695	  39.000	  29.353	-129.353	  24.456
     27.4029	  37.000	  29.421	-131.421	  24.410
     27.4363	  18.000	  29.495	-150.495	  24.364
     27.4697	  32.000	  29.575	-136.575	  24.317
     27.5032	  31.000	  29.663	-137.663	  24.271
     27.5366	  33.000	  29.758	-135.758	  24.225
     27.5700	  36.000	  29.861	-132.861	  24.179
     27.6034	  27.000	  29.972	-141.972	  24.133
     27.6369	  26.000	  30.093	-143.093	  24.087
     27.6703	  31.000	  30.224	-138.224	  24.041
     27.7037	  26.000	  30.365	-143.365	  23.995
     27.7371	  32.000	  30.519	-137.519	  23.949
     27.7705	  33.000	  30.684	-136.684	  23.904
     27.8040	  28.000	  30.863	-141.863	  23.858
     27.8374	  24.000	  31.057	-146.057	  23.813
     27.8708	  34.000	  31.268	-136.268	  23.768
     27.9042	  29.000	  31.495	-141.495	  23.722
     27.9377	  26.000	  31.742	-144.742	  23.677
     27.9711	  35.000	  32.010	-136.010	  23.632
     28.0045	  36.000	  32.300	-135.300	  23.587
     28.0379	  33.000	  32.641	-138.641	  23.542
     28.0713	  35.000	  32.985	-136.985	  23.497
     28.1048	  29.000	  33.371	-143.371	  23.453
     28.1382	  39.000	  33.780	-133.780	  23.408
     28.1716	  37.000	  34.226	-136.226	  23.363
     28.2050	  39.000	  34.715	-134.715	  23.319
     28.2385	  31.000	  35.250	-143.250	  23.275
     28.2719	  31.000	  35.838	-143.837	  23.230
     28.3053	  35.000	  36.484	-140.484	  23.186
     28.3387	  31.000	  37.196	-145.196	  23.142
     28.3721	  32.000	  37.984	-144.984	  23.098
     28.4056	  36.000	  38.856	-141.856	  23.054
     28.4390	  52.000	  39.825	-126.825	  23.010
     28.4724	  52.000	  40.905	-127.905	  22.966
     28.5058	  42.000	  42.112	-139.112	  22.922
     28.5393	  39.000	  43.465	-143.465	  22.878
     28.5727	  48.000	  44.989	-135.989	  22.835
     28.6061	  44.000	  46.710	-141.710	  22.791
     28.6395	  57.000	  48.665	-130.665	  22.748
     28.6729	  60.000	  50.894	-129.894	  22.705
     28.7064	  50.000	  53.450	-142.450	  22.661
     28.7398	  57.000	  56.398	-138.398	  22.618
     28.7732	  69.000	  59.823	-129.823	  22.575
     28.8066	  49.000	  63.832	-153.832	  22.532
     28.8401	  70.000	  68.568	-137.568	  22.489
     28.8735	  80.000	  74.223	-133.223	  22.446
     28.9069	  75.000	  81.048	-145.048	  22.403
     28.9403	  78.000	  89.384	-150.384	  22.361
     28.9738	 104.000	  99.677	-134.677	  22.318
     29.0072	 108.000	 112.502	-143.502	  22.275
     29.0406	  99.000	 128.577	-168.577	  22.233
     29.0740	 131.000	 148.774	-156.774	  22.191
     29.1074	 156.000	 174.076	-157.076	  22.148
     29.1409	 167.000	 205.503	-177.503	  22.106
     29.1743	 192.000	 243.852	-190.852	  22.064
     29.2077	 246.000	 289.207	-182.207	  22.022
     29.2411	 279.000	 339.944	-199.944	  21.980
     29.2746	 379.000	 391.491	-151.491	  21.938
     29.3080	 503.000	 435.705	 -71.705	  21.896
     29.3414	 556.000	 462.867	 -45.867	  21.854
     29.3748	 474.000	 466.274	-131.274	  21.813
     29.4082	 445.000	 445.722	-139.722	  21.771
     29.4417	 406.000	 406.838	-139.838	  21.730
     29.4751	 288.000	 358.025	-209.025	  21.688
     29.5085	 244.000	 307.281	-202.281	  21.647
     29.5419	 199.000	 260.152	-200.152	  21.606
     29.5754	 190.000	 219.279	-168.279	  21.564
     29.6088	 176.000	 185.274	-148.274	  21.523
     29.6422	 136.000	 157.642	-160.642	  21.482
     29.6756	 124.000	 135.473	-150.473	  21.441
     29.7090	 129.000	 117.781	-127.781	  21.400
     29.7425	  94.000	 103.658	-148.658	  21.360
     29.7759	  80.000	  92.332	-151.332	  21.319
     29.8093	  99.000	  83.178	-123.178	  21.278
     29.8427	  88.000	  75.700	-126.700	  21.238
     29.8762	  80.000	  69.523	-128.523	  21.197
     29.9096	  55.000	  64.359	-148.359	  21.157
     29.9430	  67.000	  59.996	-131.996	  21.116
     29.9764	  60.000	  56.273	-135.273	  21.076
     30.0098	  67.000	  53.067	-125.067	  21.036
     30.0433	  64.000	  50.286	-125.286	  20.996
     30.0767	  71.000	  47.858	-115.858	  20.956
     30.1101	  43.000	  45.725	-141.725	  20.916
     30.1435	  54.000	  43.841	-128.841	  20.876
     30.1770	  57.000	  42.170	-124.170	  20.836
     30.2104	  48.000	  40.679	-131.679	  20.797
     30.2438	  44.000	  39.346	-134.346	  20.757
     30.2772	  58.000	  38.147	-119.147	  20.717
     30.3107	  50.000	  37.067	-126.067	  20.678
     30.3441	  46.000	  36.090	-129.090	  20.639
     30.3775	  31.000	  35.203	-143.203	  20.599
     30.4109	  33.000	  34.397	-140.397	  20.560
     30.4443	  37.000	  33.662	-135.662	  20.521
     30.4778	  41.000	  32.991	-130.991	  20.482
     30.5112	  33.000	  32.377	-138.377	  20.443
     30.5446	  33.000	  31.814	-137.814	  20.404
     30.5780	  36.000	  31.298	-134.298	  20.365
     30.6115	  34.000	  30.825	-135.825	  20.326
     30.6449	  33.000	  30.391	-136.391	  20.287
     30.6783	  44.000	  29.994	-124.994	  20.249
     30.7117	  29.000	  29.632	-139.632	  20.210
     30.7451	  39.000	  29.303	-129.303	  20.172
     30.7786	  31.000	  29.006	-137.006	  20.133
     30.8120	  28.000	  28.740	-139.740	  20.095
     30.8454	  36.000	  28.507	-131.507	  20.057
     30.8788	  23.000	  28.307	-144.307	  20.018
     30.9123	  32.000	  28.144	-135.144	  19.980
     30.9457	  23.000	  28.020	-144.020	  19.942
     30.9791	  42.000	  27.942	-124.942	  19.904
     31.0125	  30.000	  27.918	-136.918	  19.866
     31.0459	  28.000	  27.982	-138.982	  19.829
     31.0794	  40.000	  28.100	-127.100	  19.791
     31.1128	  35.000	  28.309	-132.309	  19.753
     31.1462	  31.000	  28.639	-136.639	  19.716
     31.1796	  27.000	  29.081	-141.081	  19.678
     31.2131	  36.000	  29.656	-132.656	  19.641
     31.2465	  35.000	  30.352	-134.352	  19.603
     31.2799	  40.000	  31.120	-130.120	  19.566
     31.3133	  30.000	  31.855	-140.855	  19.529
     31.3468	  49.000	  32.400	-122.400	  19.492
     31.3802	  34.000	  32.601	-137.601	  19.454
     31.4136	  36.000	  32.383	-135.383	  19.417
     31.4470	  30.000	  31.776	-140.776	  19.381
     31.4804	  34.000	  30.893	-135.893	  19.344
     31.5139	  24.000	  29.875	-144.875	  19.307
     31.5473	  34.000	  28.849	-133.849	  19.270
     31.5807	  29.000	  27.899	-137.899	  19.234
     31.6141	  26.000	  27.065	-140.065	  19.197
     31.6476	  29.000	  26.353	-136.353	  19.160
     31.6810	  20.000	  25.754	-144.754	  19.124
     31.7144	  22.000	  25.253	-142.253	  19.088
     31.7478	  35.000	  24.833	-128.833	  19.051
     31.7812	  16.000	  24.478	-147.478	  19.015
     31.8147	  22.000	  24.175	-141.175	  18.979
     31.8481	  33.000	  23.914	-129.914	  18.943
     31.8815	  32.000	  23.685	-130.685	  18.907
     31.9149	  29.000	  23.482	-133.482	  18.871
     31.9484	  27.000	  23.300	-135.300	  18.835
     31.9818	  30.000	  23.135	-132.135	  18.800
     32.0152	  24.000	  22.983	-137.983	  18.764
     32.0486	  24.000	  22.843	-137.843	  18.728
     32.0820	  20.000	  22.713	-141.713	  18.693
     32.1155	  23.000	  22.591	-138.591	  18.657
     32.1489	  24.000	  22.477	-137.477	  18.622
     32.1823	  23.000	  22.368	-138.368	  18.587
     32.2157	  20.000	  22.266	-141.266	  18.551
     32.2492	  22.000	  22.168	-139.168	  18.516
     32.2826	  27.000	  22.074	-134.074	  18.481
     32.3160	  24.000	  21.985	-136.985	  18.446
     32.3494	  21.000	  21.899	-139.899	  18.411
     32.3829	  17.000	  21.816	-143.816	  18.376
     32.4163	  30.000	  21.737	-130.737	  18.341
     32.4497	  21.000	  21.660	-139.660	  18.306
     32.4831	  20.000	  21.585	-140.585	  18.272
     32.5165	  30.000	  21.513	-130.513	  18.237
     32.5500	  17.000	  21.443	-143.443	  18.203
     32.5834	  24.000	  21.375	-136.375	  18.168
     32.6168	  24.000	  21.308	-136.308	  18.134
     32.6502	  14.000	  21.244	-146.244	  18.099
     32.6837	  23.000	  21.181	-137.181	  18.065
     32.7171	  20.000	  21.120	-140.120	  18.031
     32.7505	  17.000	  21.060	-143.060	  17.997
     32.7839	  19.000	  21.002	-141.002	  17.963
     32.8173	  15.000	  20.945	-144.945	  17.929
     32.8508	  28.000	  20.889	-131.889	  17.895
     32.8842	  24.000	  20.834	-135.834	  17.861
     32.9176	  23.000	  20.781	-136.781	  17.827
     32.9510	  21.000	  20.729	-138.729	  17.793
     32.9845	  20.000	  20.678	-139.678	  17.760
     33.0179	  22.000	  20.628	-137.628	  17.726
     33.0513	  33.000	  20.579	-126.579	  17.693
     33.0847	  28.000	  20.531	-131.531	  17.659
     33.1181	  17.000	  20.484	-142.484	  17.626
     33.1516	  11.000	  20.438	-148.438	  17.593
     33.1850	  23.000	  20.393	-136.393	  17.559
     33.2184	  22.000	  20.348	-137.348	  17.526
     33.2518	  17.000	  20.305	-142.305	  17.493
     33.2853	  20.000	  20.263	-139.263	  17.460
     33.3187	  22.000	  20.221	-137.221	  17.427
     33.3521	  21.000	  20.181	-138.181	  17.394
     33.3855	  17.000	  20.141	-142.141	  17.362
