CaCO3   Chi2:  4.0527  CELL:    4.98828   4.98828  17.06251   90.0000   90.0000  120.0000   SPGR: R -3 C                 TEMP:      0.00
  1   2992     1.54060     1.54439     0.00000    -0.07647     0.00000    0
   168     0     1
       0.00000      10.00000
 2Theta	Yobs	Ycal	Yobs-Ycal	Backg	Posr	(hkl)	K
     20.0165	   43.00	   40.57	 -579.82	   38.64
     20.0499	   39.00	   40.51	 -583.76	   38.57
     20.0834	   40.00	   40.44	 -582.69	   38.50
     20.1168	   47.00	   40.37	 -575.62	   38.43
     20.1502	   30.00	   40.30	 -592.55	   38.36
     20.1836	   37.00	   40.24	 -585.49	   38.29
     20.2170	   46.00	   40.17	 -576.42	   38.22
     20.2505	   36.00	   40.11	 -586.36	   38.15
     20.2839	   37.00	   40.04	 -585.29	   38.08
     20.3173	   41.00	   39.97	 -581.22	   38.01
     20.3507	   29.00	   39.91	 -593.16	   37.94
     20.3842	   37.00	   39.84	 -585.09	   37.87
     20.4176	   46.00	   39.78	 -576.03	   37.80
     20.4510	   39.00	   39.71	 -582.96	   37.73
     20.4844	   36.00	   39.65	 -585.90	   37.66
     20.5179	   43.00	   39.59	 -578.84	   37.59
     20.5513	   42.00	   39.52	 -579.77	   37.52
     20.5847	   28.00	   39.46	 -593.71	   37.45
     20.6181	   27.00	   39.40	 -594.65	   37.38
     20.6515	   41.00	   39.33	 -580.58	   37.32
     20.6850	   47.00	   39.27	 -574.52	   37.25
     20.7184	   34.00	   39.21	 -587.46	   37.18
     20.7518	   36.00	   39.15	 -585.40	   37.11
     20.7852	   49.00	   39.09	 -572.34	   37.04
     20.8187	   43.00	   39.03	 -578.28	   36.97
     20.8521	   52.00	   38.97	 -569.22	   36.90
     20.8855	   36.00	   38.91	 -585.16	   36.84
     20.9189	   37.00	   38.85	 -584.10	   36.77
     20.9523	   35.00	   38.79	 -586.04	   36.70
     20.9858	   43.00	   38.73	 -577.98	   36.63
     21.0192	   35.00	   38.68	 -585.93	   36.57
     21.0526	   46.00	   38.62	 -574.87	   36.50
     21.0860	   42.00	   38.56	 -578.81	   36.43
     21.1195	   41.00	   38.51	 -579.76	   36.36
     21.1529	   45.00	   38.46	 -575.71	   36.30
     21.1863	   30.00	   38.40	 -590.65	   36.23
     21.2197	   36.00	   38.35	 -584.60	   36.16
     21.2531	   44.00	   38.30	 -576.55	   36.09
     21.2866	   41.00	   38.25	 -579.50	   36.03
     21.3200	   41.00	   38.20	 -579.45	   35.96
     21.3534	   40.00	   38.15	 -580.40	   35.89
     21.3868	   31.00	   38.10	 -589.35	   35.83
     21.4203	   33.00	   38.05	 -587.30	   35.76
     21.4537	   27.00	   38.01	 -593.26	   35.70
     21.4871	   34.00	   37.97	 -586.22	   35.63
     21.5205	   43.00	   37.93	 -577.18	   35.56
     21.5539	   37.00	   37.89	 -583.14	   35.50
     21.5874	   29.00	   37.85	 -591.10	   35.43
     21.6208	   43.00	   37.81	 -577.06	   35.37
     21.6542	   47.00	   37.78	 -573.03	   35.30
     21.6876	   41.00	   37.75	 -579.00	   35.23
     21.7211	   27.00	   37.72	 -592.97	   35.17
     21.7545	   43.00	   37.70	 -576.95	   35.10
     21.7879	   29.00	   37.68	 -590.93	   35.04
     21.8213	   27.00	   37.66	 -592.91	   34.97
     21.8548	   28.00	   37.65	 -591.90	   34.91
     21.8882	   37.00	   37.64	 -582.89	   34.84
     21.9216	   34.00	   37.64	 -585.89	   34.78
     21.9550	   53.00	   37.64	 -566.89	   34.71
     21.9884	   46.00	   37.65	 -573.90	   34.65
     22.0219	   39.00	   37.67	 -580.92	   34.58
     22.0553	   39.00	   37.70	 -580.95	   34.52
     22.0887	   35.00	   37.74	 -584.99	   34.46
     22.1221	   37.00	   37.79	 -583.04	   34.39
     22.1556	   37.00	   37.85	 -583.10	   34.33
     22.1890	   33.00	   37.93	 -587.18	   34.26
     22.2224	   32.00	   38.02	 -588.27	   34.20
     22.2558	   43.00	   38.14	 -577.39	   34.14
     22.2892	   40.00	   38.29	 -580.54	   34.07
     22.3227	   37.00	   38.46	 -583.71	   34.01
     22.3561	   37.00	   38.67	 -583.92	   33.94
     22.3895	   41.00	   38.93	 -580.18	   33.88
     22.4229	   40.00	   39.24	 -581.49	   33.82
     22.4564	   47.00	   39.62	 -574.87	   33.75
     22.4898	   44.00	   40.08	 -578.33	   33.69
     22.5232	   45.00	   40.65	 -577.90	   33.63
     22.5566	   46.00	   41.35	 -577.60	   33.57
     22.5900	   43.00	   42.24	 -581.49	   33.50
     22.6235	   45.00	   43.37	 -580.62	   33.44
     22.6569	   34.00	   44.86	 -593.11	   33.38
     22.6903	   46.00	   46.87	 -583.12	   33.31
     22.7237	   52.00	   49.68	 -579.93	   33.25
     22.7572	   53.00	   53.79	 -583.04	   33.19
     22.7906	   61.00	   59.87	 -581.12	   33.13
     22.8240	   70.00	   68.83	 -581.08	   33.07
     22.8574	   79.00	   81.61	 -584.86	   33.00
     22.8909	   85.00	   98.78	 -596.03	   32.94
     22.9243	  120.00	  119.40	 -581.65	   32.88
     22.9577	  135.00	  139.08	 -586.33	   32.82
     22.9911	  141.00	  149.92	 -591.17	   32.76
     23.0245	  137.00	  146.81	 -592.06	   32.69
     23.0580	  114.00	  132.06	 -600.31	   32.63
     23.0914	  101.00	  111.94	 -593.19	   32.57
     23.1248	   72.00	   92.48	 -602.73	   32.51
     23.1582	   58.00	   76.73	 -600.98	   32.45
     23.1917	   52.00	   65.14	 -595.39	   32.39
     23.2251	   46.00	   57.05	 -593.30	   32.33
     23.2585	   47.00	   51.51	 -586.76	   32.27
     23.2919	   49.00	   47.71	 -580.96	   32.21
     23.3253	   54.00	   45.03	 -573.28	   32.14
     23.3588	   48.00	   43.07	 -577.32	   32.08
     23.3922	   41.00	   41.57	 -582.82	   32.02
     23.4256	   52.00	   40.40	 -570.65	   31.96
     23.4590	   35.00	   39.44	 -586.69	   31.90
     23.4925	   42.00	   38.66	 -578.91	   31.84
     23.5259	   55.00	   38.00	 -565.25	   31.78
     23.5593	   35.00	   37.44	 -584.69	   31.72
     23.5927	   47.00	   36.97	 -572.22	   31.66
     23.6261	   32.00	   36.55	 -586.80	   31.60
     23.6596	   42.00	   36.18	 -576.43	   31.54
     23.6930	   39.00	   35.86	 -579.11	   31.48
     23.7264	   52.00	   35.57	 -565.82	   31.42
     23.7598	   26.00	   35.31	 -591.56	   31.37
     23.7933	   26.00	   35.08	 -591.33	   31.31
     23.8267	   39.00	   34.87	 -578.12	   31.25
     23.8601	   41.00	   35.23	 -576.48	   31.19
     23.8935	   37.00	   35.05	 -580.30	   31.13
     23.9269	   39.00	   35.17	 -578.42	   31.07
     23.9604	   37.00	   35.02	 -580.27	   31.01
     23.9938	   34.00	   34.89	 -583.14	   30.95
     24.0272	   45.00	   34.76	 -572.01	   30.89
     24.0606	   29.00	   34.64	 -587.89	   30.83
     24.0941	   39.00	   34.52	 -577.77	   30.78
     24.1275	   33.00	   34.42	 -583.67	   30.72
     24.1609	   26.00	   34.31	 -590.56	   30.66
     24.1943	   34.00	   34.22	 -582.47	   30.60
     24.2278	   29.00	   34.12	 -587.37	   30.54
     24.2612	   30.00	   34.04	 -586.29	   30.49
     24.2946	   24.00	   33.95	 -592.20	   30.43
     24.3280	   30.00	   33.87	 -586.12	   30.37
     24.3614	   27.00	   33.79	 -589.04	   30.31
     24.3949	   37.00	   33.71	 -578.96	   30.25
     24.4283	   34.00	   33.64	 -581.89	   30.20
     24.4617	   33.00	   33.57	 -582.82	   30.14
     24.4951	   32.00	   33.50	 -583.75	   30.08
     24.5286	   34.00	   33.43	 -581.68	   30.03
     24.5620	   30.00	   33.37	 -585.62	   29.97
     24.5954	   28.00	   33.31	 -587.56	   29.91
     24.6288	   31.00	   33.24	 -584.49	   29.85
     24.6622	   34.00	   33.18	 -581.43	   29.80
     24.6957	   29.00	   33.13	 -586.38	   29.74
     24.7291	   30.00	   33.07	 -585.32	   29.68
     24.7625	   28.00	   33.01	 -587.26	   29.63
     24.7959	   26.00	   32.96	 -589.21	   29.57
     24.8294	   18.00	   32.91	 -597.16	   29.51
     24.8628	   26.00	   32.86	 -589.11	   29.46
     24.8962	   22.00	   32.81	 -593.06	   29.40
     24.9296	   30.00	   32.76	 -585.01	   29.35
     24.9630	   29.00	   32.71	 -585.96	   29.29
     24.9965	   30.00	   32.66	 -584.91	   29.23
     25.0299	   28.00	   32.62	 -586.87	   29.18
     25.0633	   28.00	   32.57	 -586.82	   29.12
     25.0967	   27.00	   32.53	 -587.78	   29.07
     25.1302	   23.00	   32.49	 -591.74	   29.01
     25.1636	   30.00	   32.45	 -584.70	   28.96
     25.1970	   30.00	   32.41	 -584.66	   28.90
     25.2304	   24.00	   32.37	 -590.62	   28.85
     25.2639	   37.00	   32.33	 -577.58	   28.79
     25.2973	   34.00	   32.29	 -580.54	   28.73
     25.3307	   28.00	   32.25	 -586.50	   28.68
     25.3641	   29.00	   32.22	 -585.47	   28.62
     25.3975	   35.00	   32.18	 -579.43	   28.57
     25.4310	   40.00	   32.15	 -574.40	   28.52
     25.4644	   21.00	   32.12	 -593.37	   28.46
     25.4978	   39.00	   32.09	 -575.34	   28.41
     25.5312	   24.00	   32.06	 -590.31	   28.35
     25.5647	   31.00	   32.03	 -583.28	   28.30
     25.5981	   40.00	   32.01	 -574.26	   28.24
     25.6315	   28.00	   31.98	 -586.23	   28.19
     25.6649	   26.00	   31.96	 -588.21	   28.13
     25.6983	   26.00	   31.94	 -588.19	   28.08
     25.7318	   34.00	   31.92	 -580.17	   28.03
     25.7652	   31.00	   31.89	 -583.14	   27.97
     25.7986	   35.00	   31.87	 -579.12	   27.92
     25.8320	   27.00	   31.85	 -587.10	   27.87
     25.8655	   28.00	   31.84	 -586.09	   27.81
     25.8989	   23.00	   31.82	 -591.07	   27.76
     25.9323	   29.00	   31.80	 -585.05	   27.71
     25.9657	   32.00	   31.79	 -582.04	   27.65
     25.9991	   35.00	   31.78	 -579.03	   27.60
     26.0326	   28.00	   31.77	 -586.02	   27.55
     26.0660	   26.00	   31.76	 -588.01	   27.49
     26.0994	   28.00	   31.75	 -586.00	   27.44
     26.1328	   42.00	   31.74	 -571.99	   27.39
     26.1663	   33.00	   31.74	 -580.99	   27.33
     26.1997	   30.00	   31.74	 -583.99	   27.28
     26.2331	   24.00	   31.74	 -589.99	   27.23
     26.2665	   21.00	   31.74	 -592.99	   27.18
     26.2999	   27.00	   31.74	 -586.99	   27.12
     26.3334	   20.00	   31.75	 -594.00	   27.07
     26.3668	   32.00	   31.75	 -582.00	   27.02
     26.4002	   37.00	   31.76	 -577.01	   26.97
     26.4336	   36.00	   31.78	 -578.03	   26.92
     26.4671	   27.00	   31.79	 -587.04	   26.86
     26.5005	   32.00	   31.81	 -582.06	   26.81
     26.5339	   29.00	   31.83	 -585.08	   26.76
     26.5673	   21.00	   31.85	 -593.10	   26.71
     26.6008	   24.00	   31.88	 -590.13	   26.66
     26.6342	   29.00	   31.90	 -585.15	   26.61
     26.6676	   33.00	   31.94	 -581.19	   26.55
     26.7010	   32.00	   31.97	 -582.22	   26.50
     26.7344	   31.00	   32.01	 -583.26	   26.45
     26.7679	   35.00	   32.05	 -579.30	   26.40
     26.8013	   32.00	   32.10	 -582.35	   26.35
     26.8347	   16.00	   32.15	 -598.40	   26.30
     26.8681	   27.00	   32.20	 -587.45	   26.25
     26.9016	   45.00	   32.26	 -569.51	   26.20
     26.9350	   30.00	   32.33	 -584.58	   26.15
     26.9684	   40.00	   32.40	 -574.65	   26.10
     27.0018	   35.00	   32.47	 -579.72	   26.05
     27.0352	   31.00	   32.55	 -583.80	   26.00
     27.0687	   35.00	   32.64	 -579.89	   25.94
     27.1021	   19.00	   32.73	 -595.98	   25.89
     27.1355	   28.00	   32.83	 -587.08	   25.84
     27.1689	   26.00	   32.93	 -589.18	   25.79
     27.2024	   26.00	   33.04	 -589.29	   25.74
     27.2358	   28.00	   33.17	 -587.42	   25.69
     27.2692	   20.00	   33.29	 -595.54	   25.64
     27.3026	   45.00	   33.43	 -570.68	   25.60
     27.3360	   29.00	   33.58	 -586.83	   25.55
     27.3695	   28.00	   33.74	 -587.99	   25.50
     27.4029	   43.00	   33.91	 -573.16	   25.45
     27.4363	   30.00	   34.09	 -586.34	   25.40
     27.4697	   37.00	   34.28	 -579.53	   25.35
     27.5032	   29.00	   34.49	 -587.74	   25.30
     27.5366	   26.00	   34.71	 -590.96	   25.25
     27.5700	   40.00	   34.90	 -577.15	   25.20
     27.6034	   31.00	   35.15	 -586.40	   25.15
     27.6369	   36.00	   35.41	 -581.66	   25.10
     27.6703	   42.00	   35.70	 -575.95	   25.05
     27.7037	   29.00	   36.01	 -589.26	   25.00
     27.7371	   37.00	   36.34	 -581.59	   24.96
     27.7705	   41.00	   36.70	 -577.95	   24.91
     27.8040	   24.00	   37.08	 -595.33	   24.86
     27.8374	   35.00	   37.49	 -584.74	   24.81
     27.8708	   35.00	   37.94	 -585.19	   24.76
     27.9042	   43.00	   38.41	 -577.66	   24.71
     27.9377	   30.00	   38.93	 -591.18	   24.67
     27.9711	   44.00	   39.49	 -577.74	   24.62
     28.0045	   45.00	   40.09	 -577.34	   24.57
     28.0379	   35.00	   40.74	 -587.99	   24.52
     28.0713	   44.00	   41.44	 -579.69	   24.47
     28.1048	   26.00	   42.21	 -598.46	   24.43
     28.1382	   47.00	   43.04	 -578.29	   24.38
     28.1716	   35.00	   43.95	 -591.20	   24.33
     28.2050	   42.00	   44.94	 -585.19	   24.28
     28.2385	   39.00	   46.03	 -589.28	   24.24
     28.2719	   52.00	   47.22	 -577.47	   24.19
     28.3053	   70.00	   48.52	 -560.77	   24.14
     28.3387	   40.00	   49.96	 -592.21	   24.10
     28.3721	   39.00	   51.55	 -594.80	   24.05
     28.4056	   65.00	   53.32	 -570.57	   24.00
     28.4390	   72.00	   55.28	 -565.53	   23.96
     28.4724	   62.00	   57.47	 -577.72	   23.91
     28.5058	   72.00	   59.92	 -570.17	   23.86
     28.5393	   56.00	   62.67	 -588.92	   23.82
     28.5727	   77.00	   65.78	 -571.03	   23.77
     28.6061	   80.00	   69.31	 -571.56	   23.72
     28.6395	   93.00	   73.33	 -562.58	   23.68
     28.6729	   84.00	   77.94	 -576.19	   23.63
     28.7064	   75.00	   83.25	 -590.50	   23.58
     28.7398	   92.00	   89.41	 -579.66	   23.54
     28.7732	   97.00	   96.61	 -581.86	   23.49
     28.8066	  110.00	  105.10	 -577.35	   23.45
     28.8401	  110.00	  115.18	 -587.43	   23.40
     28.8735	  128.00	  127.30	 -581.55	   23.35
     28.9069	  137.00	  142.05	 -587.30	   23.31
     28.9403	  165.00	  160.33	 -577.58	   23.26
     28.9738	  179.00	  183.45	 -586.70	   23.22
     29.0072	  218.00	  213.39	 -577.64	   23.17
     29.0406	  248.00	  253.08	 -587.33	   23.13
     29.0740	  269.00	  306.66	 -619.91	   23.08
     29.1074	  329.00	  379.68	 -632.93	   23.04
     29.1409	  416.00	  478.89	 -645.14	   22.99
     29.1743	  502.00	  611.45	 -691.70	   22.95
     29.2077	  627.00	  782.75	 -738.00	   22.90
     29.2411	  878.00	  990.67	 -694.92	   22.86
     29.2746	 1481.00	 1214.59	 -315.84	   22.81
     29.3080	 2225.00	 1405.12	  237.63	   22.77
     29.3414	 2329.00	 1500.09	  246.66	   22.72
     29.3748	 2182.00	 1470.41	  129.34	   22.68
     29.4082	 1790.00	 1335.15	 -127.40	   22.63
     29.4417	 1185.00	 1136.91	 -534.16	   22.59
     29.4751	  840.00	  923.25	 -665.50	   22.54
     29.5085	  620.00	  729.70	 -691.95	   22.50
     29.5419	  448.00	  571.47	 -705.72	   22.46
     29.5754	  376.00	  449.42	 -655.67	   22.41
     29.6088	  324.00	  358.18	 -616.43	   22.37
     29.6422	  282.00	  290.87	 -591.12	   22.32
     29.6756	  251.00	  241.23	 -572.48	   22.28
     29.7090	  221.00	  204.22	 -565.47	   22.24
     29.7425	  182.00	  176.10	 -576.35	   22.19
     29.7759	  158.00	  154.24	 -578.49	   22.15
     29.8093	  181.00	  136.87	 -538.12	   22.11
     29.8427	  152.00	  122.78	 -553.03	   22.06
     29.8762	  123.00	  111.16	 -570.41	   22.02
     29.9096	  123.00	  101.46	 -560.71	   21.98
     29.9430	  124.00	   93.27	 -551.52	   21.93
     29.9764	   90.00	   86.29	 -578.54	   21.89
     30.0098	   91.00	   80.30	 -571.55	   21.85
     30.0433	   80.00	   75.12	 -577.37	   21.80
     30.0767	   90.00	   70.61	 -562.86	   21.76
     30.1101	   86.00	   66.66	 -562.91	   21.72
     30.1435	   79.00	   63.18	 -566.43	   21.67
     30.1770	   61.00	   60.11	 -581.36	   21.63
     30.2104	   74.00	   57.38	 -565.63	   21.59
     30.2438	   69.00	   54.94	 -568.19	   21.55
     30.2772	   59.00	   52.75	 -576.00	   21.50
     30.3107	   58.00	   50.78	 -575.03	   21.46
     30.3441	   62.00	   49.01	 -569.26	   21.42
     30.3775	   72.00	   47.41	 -557.66	   21.38
     30.4109	   39.00	   45.95	 -589.20	   21.34
     30.4443	   49.00	   44.63	 -577.88	   21.29
     30.4778	   44.00	   43.43	 -581.68	   21.25
     30.5112	   58.00	   42.33	 -566.58	   21.21
     30.5446	   55.00	   41.33	 -568.58	   21.17
     30.5780	   45.00	   40.41	 -577.66	   21.13
     30.6115	   43.00	   39.58	 -578.83	   21.08
     30.6449	   44.00	   38.82	 -577.07	   21.04
     30.6783	   58.00	   38.13	 -562.38	   21.00
     30.7117	   42.00	   37.50	 -577.75	   20.96
     30.7451	   35.00	   36.94	 -584.19	   20.92
     30.7786	   32.00	   36.44	 -586.69	   20.88
     30.8120	   45.00	   36.00	 -573.25	   20.84
     30.8454	   43.00	   35.62	 -574.87	   20.80
     30.8788	   46.00	   35.31	 -571.56	   20.75
     30.9123	   40.00	   35.08	 -577.33	   20.71
     30.9457	   40.00	   34.93	 -577.18	   20.67
     30.9791	   47.00	   34.88	 -570.13	   20.63
     31.0125	   42.00	   34.96	 -575.21	   20.59
     31.0459	   49.00	   35.20	 -568.45	   20.55
     31.0794	   40.00	   35.67	 -577.92	   20.51
     31.1128	   50.00	   36.44	 -568.69	   20.47
     31.1462	   41.00	   37.60	 -578.85	   20.43
     31.1796	   53.00	   39.26	 -568.51	   20.39
     31.2131	   50.00	   41.53	 -573.78	   20.35
     31.2465	   47.00	   44.45	 -579.70	   20.31
     31.2799	   44.00	   47.88	 -586.13	   20.27
     31.3133	   65.00	   51.35	 -568.60	   20.23
     31.3468	   61.00	   53.96	 -575.21	   20.19
     31.3802	   70.00	   54.82	 -567.07	   20.15
     31.4136	   72.00	   53.70	 -563.95	   20.11
     31.4470	   60.00	   51.00	 -573.25	   20.07
     31.4804	   56.00	   47.37	 -573.62	   20.03
     31.5139	   53.00	   43.55	 -572.80	   19.99
     31.5473	   31.00	   40.06	 -591.31	   19.95
     31.5807	   36.00	   37.14	 -583.39	   19.91
     31.6141	   50.00	   34.81	 -567.06	   19.87
     31.6476	   36.00	   33.00	 -579.25	   19.83
     31.6810	   24.00	   31.60	 -589.85	   19.79
     31.7144	   37.00	   30.51	 -575.76	   19.75
     31.7478	   26.00	   29.65	 -585.90	   19.72
     31.7812	   26.00	   28.96	 -585.21	   19.68
     31.8147	   32.00	   28.39	 -578.64	   19.64
     31.8481	   24.00	   27.91	 -586.16	   19.60
     31.8815	   35.00	   27.50	 -574.75	   19.56
     31.9149	   31.00	   27.14	 -578.39	   19.52
     31.9484	   20.00	   26.82	 -589.07	   19.48
     31.9818	   33.00	   26.53	 -575.78	   19.44
     32.0152	   21.00	   26.27	 -587.52	   19.41
     32.0486	   31.00	   26.03	 -577.28	   19.37
     32.0820	   28.00	   25.82	 -580.07	   19.33
     32.1155	   20.00	   25.61	 -587.86	   19.29
     32.1489	   21.00	   25.43	 -586.68	   19.25
     32.1823	   27.00	   25.25	 -580.50	   19.22
     32.2157	   24.00	   25.08	 -583.33	   19.18
     32.2492	   35.00	   24.93	 -572.18	   19.14
     32.2826	   31.00	   24.78	 -576.03	   19.10
     32.3160	   30.00	   24.71	 -576.96	   19.06
     32.3494	   29.00	   24.58	 -577.83	   19.03
     32.3829	   27.00	   24.49	 -579.74	   18.99
     32.4163	   24.00	   24.37	 -582.62	   18.95
     32.4497	   22.00	   24.25	 -584.50	   18.91
     32.4831	   18.00	   24.14	 -588.39	   18.88
     32.5165	   40.00	   24.03	 -566.28	   18.84
     32.5500	   21.00	   23.93	 -585.18	   18.80
     32.5834	   22.00	   23.83	 -584.08	   18.76
     32.6168	   22.00	   23.74	 -583.99	   18.73
     32.6502	   19.00	   23.65	 -586.90	   18.69
     32.6837	   29.00	   23.56	 -576.81	   18.65
     32.7171	   19.00	   23.47	 -586.72	   18.62
     32.7505	   23.00	   23.39	 -582.64	   18.58
     32.7839	   22.00	   23.31	 -583.56	   18.54
     32.8173	   23.00	   23.23	 -582.48	   18.51
     32.8508	   23.00	   23.15	 -582.40	   18.47
     32.8842	   19.00	   23.08	 -586.33	   18.43
     32.9176	   30.00	   23.01	 -575.26	   18.40
     32.9510	   27.00	   22.94	 -578.19	   18.36
     32.9845	   23.00	   22.87	 -582.12	   18.32
     33.0179	   26.00	   22.81	 -579.06	   18.29
     33.0513	   21.00	   22.74	 -583.99	   18.25
     33.0847	   26.00	   22.68	 -578.93	   18.22
     33.1181	   13.00	   22.62	 -591.87	   18.18
     33.1516	   16.00	   22.56	 -588.81	   18.14
     33.1850	   18.00	   22.51	 -586.76	   18.11
     33.2184	   27.00	   22.45	 -577.70	   18.07
     33.2518	   21.00	   22.40	 -583.65	   18.04
     33.2853	   21.00	   22.35	 -583.60	   18.00
     33.3187	   20.00	   22.30	 -584.55	   17.96
     33.3521	   20.00	   22.25	 -584.50	   17.93
     33.3855	   24.00	   22.21	 -580.46	   17.89
