CaCO3   Chi2:  1.5198  CELL:    4.99056   4.99056  17.06771   90.0000   90.0000  120.0000   SPGR: R -3 C                 TEMP:      0.00
  1   2992     1.54060     1.54439     0.00000     0.04853     0.00000    0
   135     0     1
       0.00000      10.00000
 2Theta	Yobs	Ycal	Yobs-Ycal	Backg	Posr	(hkl)	K
     20.0165	   27.00	   28.20	-1347.70	   26.53
     20.0499	   47.00	   28.16	-1327.66	   26.50
     20.0834	   31.00	   28.13	-1343.63	   26.46
     20.1168	   45.00	   28.09	-1329.59	   26.43
     20.1502	   35.00	   28.06	-1339.56	   26.39
     20.1836	   41.00	   28.02	-1333.52	   26.36
     20.2170	   35.00	   27.99	-1339.49	   26.32
     20.2505	   36.00	   27.95	-1338.45	   26.29
     20.2839	   44.00	   27.92	-1330.42	   26.26
     20.3173	   46.00	   27.88	-1328.38	   26.22
     20.3507	   36.00	   27.85	-1338.35	   26.19
     20.3842	   43.00	   27.81	-1331.31	   26.15
     20.4176	   35.00	   27.78	-1339.28	   26.12
     20.4510	   30.00	   27.74	-1344.24	   26.08
     20.4844	   23.00	   27.71	-1351.21	   26.05
     20.5179	   28.00	   27.67	-1346.17	   26.01
     20.5513	   24.00	   27.64	-1350.14	   25.98
     20.5847	   40.00	   27.60	-1334.10	   25.94
     20.6181	   27.00	   27.57	-1347.07	   25.91
     20.6515	   28.00	   27.54	-1346.04	   25.88
     20.6850	   36.00	   27.50	-1338.00	   25.84
     20.7184	   27.00	   27.47	-1346.97	   25.81
     20.7518	   37.00	   27.43	-1336.93	   25.77
     20.7852	   32.00	   27.47	-1341.97	   25.74
     20.8187	   34.00	   27.43	-1339.93	   25.70
     20.8521	   21.00	   27.44	-1352.94	   25.67
     20.8855	   31.00	   27.41	-1342.91	   25.64
     20.9189	   30.00	   27.37	-1343.87	   25.60
     20.9523	   33.00	   27.34	-1340.84	   25.57
     20.9858	   29.00	   27.31	-1344.81	   25.54
     21.0192	   30.00	   27.28	-1343.78	   25.50
     21.0526	   45.00	   27.25	-1328.75	   25.47
     21.0860	   32.00	   27.22	-1341.72	   25.43
     21.1195	   26.00	   27.20	-1347.70	   25.40
     21.1529	   36.00	   27.17	-1337.67	   25.37
     21.1863	   23.00	   27.14	-1350.64	   25.33
     21.2197	   36.00	   27.11	-1337.61	   25.30
     21.2531	   33.00	   27.08	-1340.58	   25.27
     21.2866	   31.00	   27.05	-1342.55	   25.23
     21.3200	   35.00	   27.03	-1338.53	   25.20
     21.3534	   34.00	   27.00	-1339.50	   25.17
     21.3868	   22.00	   26.97	-1351.47	   25.13
     21.4203	   37.00	   26.95	-1336.45	   25.10
     21.4537	   29.00	   26.92	-1344.42	   25.07
     21.4871	   29.00	   26.90	-1344.40	   25.03
     21.5205	   20.00	   26.87	-1353.37	   25.00
     21.5539	   28.00	   26.85	-1345.35	   24.97
     21.5874	   32.00	   26.82	-1341.32	   24.93
     21.6208	   31.00	   26.80	-1342.30	   24.90
     21.6542	   26.00	   26.78	-1347.28	   24.87
     21.6876	   34.00	   26.76	-1339.26	   24.83
     21.7211	   29.00	   26.74	-1344.24	   24.80
     21.7545	   21.00	   26.72	-1352.22	   24.77
     21.7879	   28.00	   26.70	-1345.20	   24.74
     21.8213	   28.00	   26.68	-1345.18	   24.70
     21.8548	   26.00	   26.67	-1347.17	   24.67
     21.8882	   22.00	   26.65	-1351.15	   24.64
     21.9216	   32.00	   26.64	-1341.14	   24.60
     21.9550	   18.00	   26.63	-1355.13	   24.57
     21.9884	   33.00	   26.62	-1340.12	   24.54
     22.0219	   30.00	   26.62	-1343.12	   24.51
     22.0553	   31.00	   26.61	-1342.11	   24.47
     22.0887	   32.00	   26.61	-1341.11	   24.44
     22.1221	   32.00	   26.61	-1341.11	   24.41
     22.1556	   35.00	   26.62	-1338.12	   24.38
     22.1890	   32.00	   26.63	-1341.13	   24.34
     22.2224	   28.00	   26.64	-1345.14	   24.31
     22.2558	   24.00	   26.67	-1349.17	   24.28
     22.2892	   29.00	   26.69	-1344.19	   24.25
     22.3227	   29.00	   26.73	-1344.23	   24.22
     22.3561	   35.00	   26.77	-1338.27	   24.18
     22.3895	   24.00	   26.83	-1349.33	   24.15
     22.4229	   35.00	   26.90	-1338.40	   24.12
     22.4564	   26.00	   26.98	-1347.48	   24.09
     22.4898	   46.00	   27.08	-1327.58	   24.05
     22.5232	   41.00	   27.21	-1332.71	   24.02
     22.5566	   32.00	   27.36	-1341.86	   23.99
     22.5900	   29.00	   27.56	-1345.06	   23.96
     22.6235	   33.00	   27.80	-1341.30	   23.93
     22.6569	   49.00	   28.10	-1325.60	   23.90
     22.6903	   35.00	   28.48	-1339.98	   23.86
     22.7237	   31.00	   28.96	-1344.46	   23.83
     22.7572	   30.00	   29.60	-1346.10	   23.80
     22.7906	   33.00	   30.46	-1343.96	   23.77
     22.8240	   41.00	   31.62	-1337.12	   23.74
     22.8574	   32.00	   33.27	-1347.77	   23.71
     22.8909	   58.00	   35.73	-1324.23	   23.67
     22.9243	   58.00	   40.15	-1328.65	   23.64
     22.9577	   68.00	   51.93	-1330.43	   23.61
     22.9911	   96.00	   91.11	-1341.61	   23.58
     23.0245	  184.00	  197.20	-1359.70	   23.55
     23.0580	  403.00	  384.77	-1328.27	   23.52
     23.0914	  556.00	  560.31	-1350.81	   23.49
     23.1248	  561.00	  572.47	-1357.97	   23.46
     23.1582	  436.00	  441.58	-1352.08	   23.42
     23.1917	  284.00	  263.90	-1326.40	   23.39
     23.2251	  125.00	  132.42	-1353.92	   23.36
     23.2585	   67.00	   68.03	-1347.53	   23.33
     23.2919	   37.00	   44.81	-1354.31	   23.30
     23.3253	   32.00	   37.15	-1351.65	   23.27
     23.3588	   31.00	   33.81	-1349.31	   23.24
     23.3922	   21.00	   31.77	-1357.27	   23.21
     23.4256	   24.00	   30.34	-1352.84	   23.18
     23.4590	   34.00	   29.30	-1341.80	   23.15
     23.4925	   39.00	   28.52	-1336.02	   23.11
     23.5259	   34.00	   27.91	-1340.41	   23.08
     23.5593	   31.00	   27.42	-1342.92	   23.05
     23.5927	   24.00	   27.03	-1349.53	   23.02
     23.6261	   37.00	   26.70	-1336.20	   22.99
     23.6596	   23.00	   26.43	-1349.93	   22.96
     23.6930	   27.00	   26.19	-1345.69	   22.93
     23.7264	   27.00	   25.99	-1345.49	   22.90
     23.7598	   27.00	   25.82	-1345.32	   22.87
     23.7933	   30.00	   25.66	-1342.17	   22.84
     23.8267	   24.00	   25.53	-1348.03	   22.81
     23.8601	   22.00	   25.41	-1349.91	   22.78
     23.8935	   26.00	   25.29	-1345.79	   22.75
     23.9269	   28.00	   25.19	-1343.69	   22.72
     23.9604	   27.00	   25.10	-1344.60	   22.69
     23.9938	   33.00	   25.01	-1338.51	   22.66
     24.0272	   27.00	   24.93	-1344.43	   22.63
     24.0606	   20.00	   24.86	-1351.36	   22.60
     24.0941	   27.00	   24.79	-1344.29	   22.57
     24.1275	   20.00	   24.72	-1351.22	   22.54
     24.1609	   41.00	   24.66	-1330.16	   22.51
     24.1943	   21.00	   24.60	-1350.10	   22.48
     24.2278	   28.00	   24.54	-1343.04	   22.45
     24.2612	   24.00	   24.49	-1346.99	   22.42
     24.2946	   33.00	   24.43	-1337.93	   22.39
     24.3280	   26.00	   24.38	-1344.88	   22.36
     24.3614	   27.00	   24.33	-1343.83	   22.33
     24.3949	   34.00	   24.29	-1336.79	   22.30
     24.4283	   23.00	   24.24	-1347.74	   22.27
     24.4617	   19.00	   24.20	-1351.70	   22.24
     24.4951	   28.00	   24.15	-1342.65	   22.21
     24.5286	   30.00	   24.11	-1340.61	   22.18
     24.5620	   32.00	   24.07	-1338.57	   22.15
     24.5954	   23.00	   24.03	-1347.53	   22.12
     24.6288	   27.00	   23.99	-1343.49	   22.09
     24.6622	   35.00	   23.95	-1335.45	   22.06
     24.6957	   27.00	   23.91	-1343.41	   22.03
     24.7291	   20.00	   23.87	-1350.37	   22.00
     24.7625	   27.00	   23.83	-1343.33	   21.98
     24.7959	   11.00	   23.80	-1359.30	   21.95
     24.8294	   21.00	   23.76	-1349.26	   21.92
     24.8628	   27.00	   23.72	-1343.22	   21.89
     24.8962	   23.00	   23.69	-1347.19	   21.86
     24.9296	   19.00	   23.65	-1351.15	   21.83
     24.9630	   18.00	   23.62	-1352.12	   21.80
     24.9965	   23.00	   23.58	-1347.08	   21.77
     25.0299	   23.00	   23.55	-1347.05	   21.74
     25.0633	   17.00	   23.52	-1353.02	   21.71
     25.0967	   29.00	   23.48	-1340.98	   21.68
     25.1302	   17.00	   23.45	-1352.95	   21.66
     25.1636	   30.00	   23.42	-1339.92	   21.63
     25.1970	   22.00	   23.38	-1347.88	   21.60
     25.2304	   30.00	   23.35	-1339.85	   21.57
     25.2639	   21.00	   23.32	-1348.82	   21.54
     25.2973	   28.00	   23.29	-1341.79	   21.51
     25.3307	   18.00	   23.25	-1351.75	   21.48
     25.3641	   24.00	   23.22	-1345.72	   21.46
     25.3975	   18.00	   23.19	-1351.69	   21.43
     25.4310	   24.00	   23.09	-1345.59	   21.40
     25.4644	   27.00	   23.06	-1342.56	   21.37
     25.4978	   28.00	   23.00	-1341.50	   21.34
     25.5312	   24.00	   22.97	-1345.47	   21.31
     25.5647	   24.00	   22.95	-1345.45	   21.28
     25.5981	   22.00	   22.92	-1347.42	   21.26
     25.6315	   27.00	   22.89	-1342.39	   21.23
     25.6649	   17.00	   22.86	-1352.36	   21.20
     25.6983	   27.00	   22.83	-1342.33	   21.17
     25.7318	   24.00	   22.80	-1345.30	   21.14
     25.7652	   10.00	   22.78	-1359.28	   21.12
     25.7986	   26.00	   22.75	-1343.25	   21.09
     25.8320	   29.00	   22.72	-1340.22	   21.06
     25.8655	   16.00	   22.69	-1353.19	   21.03
     25.8989	   17.00	   22.66	-1352.16	   21.00
     25.9323	   21.00	   22.64	-1348.14	   20.98
     25.9657	   29.00	   22.61	-1340.11	   20.95
     25.9991	   19.00	   22.58	-1350.08	   20.92
     26.0326	   21.00	   22.55	-1348.05	   20.89
     26.0660	   17.00	   22.52	-1352.02	   20.86
     26.0994	   26.00	   22.50	-1343.00	   20.84
     26.1328	   27.00	   22.47	-1341.97	   20.81
     26.1663	   26.00	   22.44	-1342.94	   20.78
     26.1997	   22.00	   22.41	-1346.91	   20.75
     26.2331	   20.00	   22.39	-1348.89	   20.73
     26.2665	   18.00	   22.36	-1350.86	   20.70
     26.2999	   21.00	   22.33	-1347.83	   20.67
     26.3334	   23.00	   22.30	-1345.80	   20.64
     26.3668	   13.00	   22.28	-1355.78	   20.62
     26.4002	   28.00	   22.25	-1340.75	   20.59
     26.4336	   19.00	   22.22	-1349.72	   20.56
     26.4671	   26.00	   22.19	-1342.69	   20.53
     26.5005	   24.00	   22.17	-1344.67	   20.51
     26.5339	   22.00	   22.14	-1346.64	   20.48
     26.5673	   20.00	   22.11	-1348.61	   20.45
     26.6008	   22.00	   22.09	-1346.59	   20.42
     26.6342	   27.00	   22.06	-1341.56	   20.40
     26.6676	   35.00	   22.03	-1333.53	   20.37
     26.7010	   22.00	   22.00	-1346.50	   20.34
     26.7344	   27.00	   21.98	-1341.48	   20.32
     26.7679	   26.00	   21.95	-1342.45	   20.29
     26.8013	   21.00	   21.92	-1347.42	   20.26
     26.8347	   20.00	   21.90	-1348.40	   20.24
     26.8681	   21.00	   21.87	-1347.37	   20.21
     26.9016	   22.00	   21.84	-1346.34	   20.18
     26.9350	   26.00	   21.82	-1342.32	   20.15
     26.9684	   30.00	   21.79	-1338.29	   20.13
     27.0018	   28.00	   21.76	-1340.26	   20.10
     27.0352	   20.00	   21.74	-1348.24	   20.07
     27.0687	   19.00	   21.71	-1349.21	   20.05
     27.1021	   18.00	   22.40	-1350.90	   20.02
     27.1355	   27.00	   22.40	-1341.90	   19.99
     27.1689	   23.00	   22.75	-1346.25	   19.97
     27.2024	   16.00	   22.76	-1353.26	   19.94
     27.2358	   21.00	   22.76	-1348.26	   19.91
     27.2692	   19.00	   22.77	-1350.27	   19.89
     27.3026	   17.00	   22.79	-1352.29	   19.86
     27.3360	   18.00	   22.80	-1351.30	   19.84
     27.3695	   13.00	   22.82	-1356.32	   19.81
     27.4029	   21.00	   22.83	-1348.33	   19.78
     27.4363	   18.00	   22.85	-1351.35	   19.76
     27.4697	   19.00	   22.88	-1350.38	   19.73
     27.5032	   15.00	   22.90	-1354.40	   19.70
     27.5366	   23.00	   22.93	-1346.43	   19.68
     27.5700	   16.00	   22.96	-1353.46	   19.65
     27.6034	   16.00	   22.99	-1353.49	   19.63
     27.6369	   14.00	   23.03	-1355.53	   19.60
     27.6703	   26.00	   23.07	-1343.57	   19.57
     27.7037	   26.00	   23.11	-1343.61	   19.55
     27.7371	   26.00	   23.16	-1343.66	   19.52
     27.7705	   29.00	   23.22	-1340.72	   19.50
     27.8040	   26.00	   23.27	-1343.77	   19.47
     27.8374	   15.00	   23.34	-1354.84	   19.44
     27.8708	   26.00	   23.41	-1343.91	   19.42
     27.9042	   30.00	   23.48	-1339.98	   19.39
     27.9377	   24.00	   23.56	-1346.06	   19.37
     27.9711	   18.00	   23.65	-1352.15	   19.34
     28.0045	   16.00	   23.75	-1354.25	   19.32
     28.0379	   21.00	   23.86	-1349.36	   19.29
     28.0713	   22.00	   23.97	-1348.47	   19.26
     28.1048	   31.00	   24.10	-1339.60	   19.24
     28.1382	   26.00	   24.24	-1344.74	   19.21
     28.1716	   27.00	   24.39	-1343.89	   19.19
     28.2050	   16.00	   24.55	-1355.05	   19.16
     28.2385	   22.00	   24.73	-1349.23	   19.14
     28.2719	   27.00	   24.93	-1344.43	   19.11
     28.3053	   24.00	   25.15	-1347.65	   19.09
     28.3387	   30.00	   25.39	-1341.89	   19.06
     28.3721	   23.00	   25.65	-1349.15	   19.04
     28.4056	   33.00	   25.95	-1339.45	   19.01
     28.4390	   41.00	   26.27	-1331.77	   18.99
     28.4724	   39.00	   26.63	-1334.13	   18.96
     28.5058	   37.00	   27.03	-1336.53	   18.93
     28.5393	   32.00	   27.48	-1341.98	   18.91
     28.5727	   47.00	   27.99	-1327.49	   18.88
     28.6061	   49.00	   28.55	-1326.05	   18.86
     28.6395	   40.00	   29.20	-1335.70	   18.83
     28.6729	   46.00	   29.92	-1330.42	   18.81
     28.7064	   39.00	   30.75	-1338.25	   18.78
     28.7398	   54.00	   31.70	-1324.20	   18.76
     28.7732	   44.00	   32.79	-1335.29	   18.73
     28.8066	   50.00	   34.06	-1330.56	   18.71
     28.8401	   54.00	   35.55	-1328.05	   18.69
     28.8735	   46.00	   37.30	-1337.80	   18.66
     28.9069	   43.00	   39.37	-1342.87	   18.64
     28.9403	   50.00	   41.86	-1338.36	   18.61
     28.9738	   45.00	   44.88	-1346.38	   18.59
     29.0072	   57.00	   48.60	-1338.10	   18.56
     29.0406	   57.00	   53.23	-1342.73	   18.54
     29.0740	   56.00	   59.12	-1349.62	   18.51
     29.1074	   73.00	   66.74	-1340.24	   18.49
     29.1409	   82.00	   76.83	-1341.33	   18.46
     29.1743	  112.00	   90.59	-1325.09	   18.44
     29.2077	  148.00	  110.07	-1308.57	   18.41
     29.2411	  175.00	  139.91	-1311.41	   18.39
     29.2746	  246.00	  198.23	-1298.73	   18.37
     29.3080	  433.00	  366.13	-1279.63	   18.34
     29.3414	  823.00	  891.02	-1414.52	   18.32
     29.3748	 1899.00	 2127.20	-1574.70	   18.29
     29.4082	 3964.00	 3963.35	-1345.85	   18.27
     29.4417	 5386.00	 5230.65	-1191.15	   18.24
     29.4751	 5009.00	 4954.80	-1292.30	   18.22
     29.5085	 3857.00	 3882.70	-1372.20	   18.20
     29.5419	 2477.00	 2486.74	-1356.24	   18.17
     29.5754	 1218.00	 1267.63	-1396.13	   18.15
     29.6088	  505.00	  556.20	-1397.70	   18.12
     29.6422	  227.00	  260.02	-1379.52	   18.10
     29.6756	  132.00	  158.53	-1373.03	   18.08
     29.7090	  119.00	  118.20	-1345.70	   18.05
     29.7425	   80.00	   95.50	-1362.00	   18.03
     29.7759	   61.00	   80.09	-1365.59	   18.00
     29.8093	   59.00	   68.96	-1356.46	   17.98
     29.8427	   62.00	   60.63	-1345.13	   17.96
     29.8762	   54.00	   54.24	-1346.74	   17.93
     29.9096	   40.00	   49.22	-1355.72	   17.91
     29.9430	   47.00	   45.22	-1344.72	   17.89
     29.9764	   36.00	   41.97	-1352.47	   17.86
     30.0098	   44.00	   39.29	-1341.79	   17.84
     30.0433	   36.00	   37.06	-1347.56	   17.82
     30.0767	   33.00	   35.18	-1348.68	   17.79
     30.1101	   33.00	   33.58	-1347.08	   17.77
     30.1435	   30.00	   32.21	-1348.71	   17.74
     30.1770	   39.00	   31.03	-1338.53	   17.72
     30.2104	   39.00	   29.99	-1337.49	   17.70
     30.2438	   35.00	   29.09	-1340.59	   17.67
     30.2772	   37.00	   28.29	-1337.79	   17.65
     30.3107	   23.00	   27.59	-1351.09	   17.63
     30.3441	   29.00	   26.96	-1344.46	   17.60
     30.3775	   31.00	   26.39	-1341.89	   17.58
     30.4109	   40.00	   25.89	-1332.39	   17.56
     30.4443	   23.00	   25.43	-1348.93	   17.53
     30.4778	   31.00	   25.02	-1340.52	   17.51
     30.5112	   32.00	   24.65	-1339.15	   17.49
     30.5446	   31.00	   24.31	-1339.81	   17.47
     30.5780	   27.00	   24.00	-1343.50	   17.44
     30.6115	   30.00	   23.71	-1340.21	   17.42
     30.6449	   28.00	   23.45	-1341.95	   17.40
     30.6783	   20.00	   23.21	-1349.71	   17.37
     30.7117	   37.00	   23.00	-1332.50	   17.35
     30.7451	   29.00	   22.80	-1340.30	   17.33
     30.7786	   31.00	   22.62	-1338.12	   17.30
     30.8120	   19.00	   22.45	-1349.95	   17.28
     30.8454	   23.00	   22.30	-1345.80	   17.26
     30.8788	   27.00	   22.17	-1341.67	   17.24
     30.9123	   18.00	   22.05	-1350.55	   17.21
     30.9457	   19.00	   21.95	-1349.45	   17.19
     30.9791	   18.00	   21.86	-1350.36	   17.17
     31.0125	   33.00	   21.80	-1335.30	   17.15
     31.0459	   31.00	   21.76	-1337.26	   17.12
     31.0794	   20.00	   21.74	-1348.24	   17.10
     31.1128	   19.00	   21.76	-1349.26	   17.08
     31.1462	   11.00	   21.82	-1357.32	   17.06
     31.1796	   32.00	   21.95	-1336.45	   17.03
     31.2131	   21.00	   22.16	-1347.66	   17.01
     31.2465	   23.00	   22.51	-1346.01	   16.99
     31.2799	   22.00	   23.13	-1347.63	   16.97
     31.3133	   16.00	   24.57	-1355.07	   16.94
     31.3468	   41.00	   29.09	-1334.59	   16.92
     31.3802	   43.00	   42.64	-1346.14	   16.90
     31.4136	   69.00	   71.41	-1348.91	   16.88
     31.4470	  134.00	  108.36	-1320.86	   16.85
     31.4804	  137.00	  126.24	-1335.74	   16.83
     31.5139	  129.00	  115.10	-1332.60	   16.81
     31.5473	  123.00	   93.65	-1317.15	   16.79
     31.5807	   53.00	   67.07	-1360.57	   16.77
     31.6141	   41.00	   43.79	-1349.29	   16.74
     31.6476	   37.00	   30.09	-1339.59	   16.72
     31.6810	   14.00	   24.34	-1356.84	   16.70
     31.7144	   20.00	   22.31	-1348.81	   16.68
     31.7478	   23.00	   21.46	-1344.96	   16.66
     31.7812	   21.00	   20.95	-1346.45	   16.63
     31.8147	   18.00	   19.88	-1348.38	   16.61
     31.8481	   20.00	   19.63	-1346.13	   16.59
     31.8815	   30.00	   19.08	-1335.58	   16.57
     31.9149	   24.00	   18.92	-1341.42	   16.55
     31.9484	   18.00	   18.80	-1347.30	   16.53
     31.9818	   15.00	   18.70	-1350.20	   16.50
     32.0152	   24.00	   18.61	-1341.11	   16.48
     32.0486	   17.00	   18.53	-1348.03	   16.46
     32.0820	   21.00	   18.46	-1343.96	   16.44
     32.1155	   24.00	   18.40	-1340.90	   16.42
     32.1489	   17.00	   18.35	-1347.85	   16.40
     32.1823	   19.00	   18.30	-1345.80	   16.37
     32.2157	   24.00	   18.25	-1340.75	   16.35
     32.2492	   20.00	   18.21	-1344.71	   16.33
     32.2826	   14.00	   18.17	-1350.67	   16.31
     32.3160	   17.00	   18.14	-1347.64	   16.29
     32.3494	   16.00	   18.10	-1348.60	   16.27
     32.3829	   20.00	   18.07	-1344.57	   16.25
     32.4163	   17.00	   18.03	-1347.53	   16.22
     32.4497	   13.00	   18.00	-1351.50	   16.20
     32.4831	   10.00	   17.97	-1354.47	   16.18
     32.5165	   22.00	   17.94	-1342.44	   16.16
     32.5500	   13.00	   17.91	-1351.41	   16.14
     32.5834	   24.00	   17.88	-1340.38	   16.12
     32.6168	   20.00	   17.86	-1344.36	   16.10
     32.6502	   16.00	   17.83	-1348.33	   16.08
     32.6837	   15.00	   17.80	-1349.30	   16.05
     32.7171	   17.00	   17.78	-1347.28	   16.03
     32.7505	   14.00	   17.75	-1350.25	   16.01
     32.7839	   17.00	   17.73	-1347.23	   15.99
     32.8173	   20.00	   17.70	-1344.20	   15.97
     32.8508	   24.00	   17.68	-1340.18	   15.95
     32.8842	   11.00	   17.65	-1353.15	   15.93
     32.9176	   18.00	   17.63	-1346.13	   15.91
     32.9510	   13.00	   17.61	-1351.11	   15.89
     32.9845	   22.00	   17.58	-1342.08	   15.87
     33.0179	   15.00	   17.56	-1349.06	   15.85
     33.0513	   27.00	   17.54	-1337.04	   15.83
     33.0847	   14.00	   17.51	-1350.01	   15.80
     33.1181	   16.00	   17.49	-1347.99	   15.78
     33.1516	   20.00	   17.47	-1343.97	   15.76
     33.1850	   18.00	   17.45	-1345.95	   15.74
     33.2184	   10.00	   17.43	-1353.93	   15.72
     33.2518	   14.00	   17.40	-1349.90	   15.70
     33.2853	   15.00	   17.38	-1348.88	   15.68
     33.3187	   22.00	   17.36	-1341.86	   15.66
     33.3521	   17.00	   17.34	-1346.84	   15.64
     33.3855	   19.00	   17.32	-1344.82	   15.62
