 Nd hydroxide   Chi2:  2.5054  CELL:    6.42473   6.42473   3.73891   90.0000   90.0000  120.0000   SPGR: P 63/m                 TEMP:      0.00
  1   2693     1.54060     1.54439     0.00000     0.06674     0.00000    0
   178     0     1
       0.00000      13.00000
 2Theta	Yobs	Ycal	Yobs-Ycal	Backg	Posr	(hkl)	K
     10.0098	  242.00	  136.38	 -526.63	  136.38
     10.0432	  210.00	  136.16	 -526.63	  136.16
     10.0767	  232.00	  135.94	 -526.63	  135.94
     10.1101	  211.00	  135.73	 -526.63	  135.73
     10.1435	  237.00	  135.51	 -526.63	  135.51
     10.1769	  256.00	  135.29	 -526.63	  135.29
     10.2103	  232.00	  135.08	 -526.63	  135.08
     10.2438	  296.00	  134.86	 -526.63	  134.86
     10.2772	  259.00	  134.65	 -526.63	  134.65
     10.3106	  207.00	  134.43	 -526.63	  134.43
     10.3440	  244.00	  134.22	 -526.63	  134.22
     10.3775	  238.00	  134.00	 -526.63	  134.00
     10.4109	  232.00	  133.79	 -526.63	  133.79
     10.4443	  234.00	  133.57	 -526.63	  133.57
     10.4777	  213.00	  133.36	 -526.63	  133.36
     10.5111	  229.00	  133.14	 -526.63	  133.14
     10.5446	  247.00	  132.93	 -526.63	  132.93
     10.5780	  245.00	  132.72	 -526.63	  132.72
     10.6114	  251.00	  132.50	 -526.63	  132.50
     10.6448	  219.00	  132.29	 -526.63	  132.29
     10.6783	  255.00	  132.08	 -526.63	  132.08
     10.7117	  247.00	  131.87	 -526.63	  131.87
     10.7451	  232.00	  131.65	 -526.63	  131.65
     10.7785	  253.00	  131.44	 -526.63	  131.44
     10.8120	  240.00	  131.23	 -526.63	  131.23
     10.8454	  236.00	  131.02	 -526.63	  131.02
     10.8788	  227.00	  130.81	 -526.63	  130.81
     10.9122	  217.00	  130.60	 -526.63	  130.60
     10.9456	  227.00	  130.39	 -526.63	  130.39
     10.9791	  202.00	  130.18	 -526.63	  130.18
     11.0125	  219.00	  129.97	 -526.63	  129.97
     11.0459	  173.00	  129.76	 -526.63	  129.76
     11.0793	  221.00	  129.55	 -526.63	  129.55
     11.1128	  206.00	  129.34	 -526.63	  129.34
     11.1462	  198.00	  129.13	 -526.63	  129.13
     11.1796	  238.00	  128.92	 -526.63	  128.92
     11.2130	  213.00	  128.71	 -526.63	  128.71
     11.2464	  200.00	  128.50	 -526.63	  128.50
     11.2799	  219.00	  128.29	 -526.63	  128.29
     11.3133	  213.00	  128.08	 -526.63	  128.08
     11.3467	  209.00	  127.88	 -526.63	  127.88
     11.3801	  218.00	  127.67	 -526.63	  127.67
     11.4136	  170.00	  127.46	 -526.63	  127.46
     11.4470	  226.00	  127.25	 -526.63	  127.25
     11.4804	  208.00	  127.05	 -526.63	  127.05
     11.5138	  217.00	  126.84	 -526.63	  126.84
     11.5472	  194.00	  126.63	 -526.63	  126.63
     11.5807	  209.00	  126.43	 -526.63	  126.43
     11.6141	  207.00	  126.22	 -526.63	  126.22
     11.6475	  195.00	  126.01	 -526.63	  126.01
     11.6809	  218.00	  125.81	 -526.63	  125.81
     11.7144	  209.00	  125.60	 -526.63	  125.60
     11.7478	  210.00	  125.40	 -526.63	  125.40
     11.7812	  209.00	  125.19	 -526.63	  125.19
     11.8146	  202.00	  124.99	 -526.63	  124.99
     11.8481	  216.00	  124.78	 -526.63	  124.78
     11.8815	  212.00	  124.58	 -526.63	  124.58
     11.9149	  211.00	  124.38	 -526.63	  124.38
     11.9483	  191.00	  124.17	 -526.63	  124.17
     11.9817	  176.00	  123.97	 -526.63	  123.97
     12.0152	  180.00	  123.77	 -526.63	  123.77
     12.0486	  200.00	  123.56	 -526.63	  123.56
     12.0820	  175.00	  123.36	 -526.63	  123.36
     12.1154	  192.00	  123.16	 -526.63	  123.16
     12.1489	  190.00	  122.96	 -526.63	  122.96
     12.1823	  202.00	  122.75	 -526.63	  122.75
     12.2157	  181.00	  122.55	 -526.63	  122.55
     12.2491	  170.00	  122.35	 -526.63	  122.35
     12.2825	  203.00	  122.15	 -526.63	  122.15
     12.3160	  170.00	  121.95	 -526.63	  121.95
     12.3494	  205.00	  121.75	 -526.63	  121.75
     12.3828	  191.00	  121.55	 -526.63	  121.55
     12.4162	  191.00	  121.35	 -526.63	  121.35
     12.4497	  196.00	  121.15	 -526.63	  121.15
     12.4831	  182.00	  120.95	 -526.63	  120.95
     12.5165	  206.00	  120.75	 -526.63	  120.75
     12.5499	  195.00	  120.55	 -526.63	  120.55
     12.5833	  175.00	  120.35	 -526.63	  120.35
     12.6168	  196.00	  120.15	 -526.63	  120.15
     12.6502	  177.00	  119.95	 -526.63	  119.95
     12.6836	  176.00	  119.75	 -526.63	  119.75
     12.7170	  205.00	  119.55	 -526.63	  119.55
     12.7505	  203.00	  119.35	 -526.63	  119.35
     12.7839	  176.00	  119.16	 -526.63	  119.16
     12.8173	  162.00	  118.96	 -526.63	  118.96
     12.8507	  203.00	  118.76	 -526.63	  118.76
     12.8841	  182.00	  118.56	 -526.63	  118.56
     12.9176	  194.00	  118.37	 -526.63	  118.37
     12.9510	  183.00	  118.17	 -526.63	  118.17
     12.9844	  175.00	  117.97	 -526.63	  117.97
     13.0178	  179.00	  120.22	 -467.85	  117.78
     13.0513	  159.00	  120.08	 -487.71	  117.58
     13.0847	  186.00	  119.94	 -460.57	  117.39
     13.1181	  176.00	  119.80	 -470.43	  117.19
     13.1515	  177.00	  119.67	 -469.30	  117.00
     13.1850	  183.00	  119.54	 -463.17	  116.80
     13.2184	  178.00	  119.41	 -468.04	  116.61
     13.2518	  200.00	  119.28	 -445.91	  116.41
     13.2852	  193.00	  119.16	 -452.79	  116.22
     13.3186	  153.00	  119.04	 -492.67	  116.02
     13.3521	  176.00	  118.92	 -469.55	  115.83
     13.3855	  177.00	  118.81	 -468.44	  115.63
     13.4189	  167.00	  118.70	 -478.33	  115.44
     13.4523	  183.00	  118.59	 -462.22	  115.25
     13.4858	  216.00	  118.49	 -429.12	  115.05
     13.5192	  157.00	  118.39	 -488.02	  114.86
     13.5526	  152.00	  118.29	 -492.92	  114.67
     13.5860	  178.00	  118.20	 -466.83	  114.48
     13.6194	  197.00	  118.11	 -447.74	  114.28
     13.6529	  204.00	  118.03	 -440.66	  114.09
     13.6863	  149.00	  117.95	 -495.58	  113.90
     13.7197	  195.00	  117.88	 -449.51	  113.71
     13.7531	  169.00	  117.81	 -475.45	  113.52
     13.7866	  144.00	  117.75	 -500.39	  113.33
     13.8200	  166.00	  117.70	 -478.33	  113.14
     13.8534	  162.00	  117.65	 -482.29	  112.95
     13.8868	  172.00	  117.61	 -472.25	  112.76
     13.9202	  176.00	  117.58	 -468.21	  112.57
     13.9537	  154.00	  117.56	 -490.19	  112.38
     13.9871	  149.00	  117.54	 -495.17	  112.19
     14.0205	  167.00	  117.53	 -477.16	  112.00
     14.0539	  173.00	  117.53	 -471.17	  111.81
     14.0874	  195.00	  117.55	 -449.18	  111.62
     14.1208	  145.00	  117.57	 -499.20	  111.43
     14.1542	  171.00	  117.61	 -473.24	  111.24
     14.1876	  155.00	  117.66	 -489.29	  111.05
     14.2211	  159.00	  117.72	 -485.35	  110.87
     14.2545	  175.00	  117.80	 -469.43	  110.68
     14.2879	  166.00	  117.89	 -478.52	  110.49
     14.3213	  145.00	  118.00	 -499.63	  110.30
     14.3547	  169.00	  118.13	 -475.76	  110.12
     14.3882	  184.00	  118.28	 -460.91	  109.93
     14.4216	  177.00	  118.45	 -468.08	  109.74
     14.4550	  166.00	  118.64	 -479.27	  109.56
     14.4884	  178.00	  118.86	 -467.49	  109.37
     14.5219	  162.00	  119.11	 -483.74	  109.18
     14.5553	  142.00	  119.38	 -504.02	  109.00
     14.5887	  163.00	  119.70	 -483.33	  108.81
     14.6221	  168.00	  120.04	 -478.68	  108.63
     14.6555	  162.00	  120.43	 -485.06	  108.44
     14.6890	  169.00	  120.87	 -478.50	  108.26
     14.7224	  158.00	  121.35	 -489.98	  108.07
     14.7558	  162.00	  121.88	 -486.52	  107.89
     14.7892	  133.00	  122.48	 -516.11	  107.70
     14.8227	  170.00	  123.14	 -479.78	  107.52
     14.8561	  156.00	  123.88	 -494.52	  107.34
     14.8895	  167.00	  124.71	 -484.34	  107.15
     14.9229	  145.00	  125.63	 -507.26	  106.97
     14.9563	  148.00	  126.65	 -505.28	  106.79
     14.9898	  163.00	  127.80	 -491.43	  106.60
     15.0232	  162.00	  129.08	 -493.71	  106.42
     15.0566	  164.00	  130.52	 -493.16	  106.24
     15.0900	  144.00	  132.14	 -514.78	  106.06
     15.1235	  163.00	  133.97	 -497.61	  105.87
     15.1569	  136.00	  136.05	 -526.68	  105.69
     15.1903	  172.00	  138.40	 -493.03	  105.51
     15.2237	  166.00	  141.08	 -501.71	  105.33
     15.2571	  167.00	  144.14	 -503.78	  105.15
     15.2906	  154.00	  147.67	 -520.31	  104.97
     15.3240	  173.00	  151.75	 -505.39	  104.79
     15.3574	  169.00	  156.50	 -514.13	  104.61
     15.3908	  181.00	  162.05	 -507.69	  104.43
     15.4243	  195.00	  168.60	 -500.23	  104.25
     15.4577	  202.00	  176.39	 -501.02	  104.07
     15.4911	  216.00	  185.72	 -496.35	  103.89
     15.5245	  224.00	  197.03	 -499.66	  103.71
     15.5580	  213.00	  210.89	 -524.53	  103.53
     15.5914	  261.00	  228.10	 -493.74	  103.35
     15.6248	  235.00	  249.81	 -541.44	  103.17
     15.6582	  249.00	  277.72	 -555.35	  102.99
     15.6916	  319.00	  314.48	 -522.12	  102.81
     15.7251	  290.00	  364.38	 -601.01	  102.64
     15.7585	  424.00	  434.34	 -536.97	  102.46
     15.7919	  497.00	  535.19	 -564.82	  102.28
     15.8253	  633.00	  682.70	 -576.33	  102.10
     15.8588	  825.00	  896.95	 -598.58	  101.93
     15.8922	 1171.00	 1196.30	 -551.93	  101.75
     15.9256	 1546.00	 1573.03	 -553.66	  101.57
     15.9590	 1718.00	 1938.05	 -746.68	  101.40
     15.9924	 1849.00	 2106.53	 -784.16	  101.22
     16.0259	 1816.00	 1968.14	 -678.77	  101.04
     16.0593	 1528.00	 1622.06	 -620.69	  100.87
     16.0927	 1176.00	 1243.95	 -594.58	  100.69
     16.1261	  932.00	  933.56	 -528.19	  100.52
     16.1596	  700.00	  708.01	 -534.65	  100.34
     16.1930	  551.00	  551.76	 -527.40	  100.17
     16.2264	  419.00	  444.75	 -552.38	   99.99
     16.2598	  365.00	  370.58	 -532.21	   99.82
     16.2932	  304.00	  317.81	 -540.44	   99.64
     16.3267	  286.00	  279.02	 -519.66	   99.47
     16.3601	  225.00	  249.63	 -551.26	   99.30
     16.3935	  236.00	  226.77	 -517.41	   99.12
     16.4269	  205.00	  208.63	 -530.26	   98.95
     16.4604	  204.00	  193.98	 -516.61	   98.77
     16.4938	  171.00	  181.98	 -537.61	   98.60
     16.5272	  154.00	  172.03	 -544.66	   98.43
     16.5606	  193.00	  163.69	 -497.32	   98.26
     16.5941	  167.00	  156.62	 -516.26	   98.08
     16.6275	  141.00	  150.58	 -536.22	   97.91
     16.6609	  144.00	  145.38	 -528.01	   97.74
     16.6943	  144.00	  140.86	 -523.49	   97.57
     16.7277	  142.00	  136.90	 -521.53	   97.40
     16.7612	  119.00	  133.42	 -541.05	   97.23
     16.7946	  151.00	  130.33	 -505.97	   97.05
     16.8280	  116.00	  127.59	 -538.22	   96.88
     16.8614	  128.00	  125.12	 -523.76	   96.71
     16.8949	  126.00	  122.91	 -523.54	   96.54
     16.9283	  140.00	  120.91	 -507.54	   96.37
     16.9617	  116.00	  119.09	 -529.72	   96.20
     16.9951	  114.00	  117.43	 -530.06	   96.03
     17.0285	  124.00	  115.91	 -518.55	   95.86
     17.0620	  128.00	  114.52	 -513.15	   95.69
     17.0954	  122.00	  113.23	 -517.87	   95.53
     17.1288	  112.00	  112.04	 -526.68	   95.36
     17.1622	  121.00	  110.94	 -516.57	   95.19
     17.1957	  111.00	  109.91	 -525.55	   95.02
     17.2291	  115.00	  108.96	 -520.59	   94.85
     17.2625	  119.00	  108.06	 -515.69	   94.68
     17.2959	   97.00	  107.22	 -536.85	   94.51
     17.3293	  118.00	  106.42	 -515.06	   94.35
     17.3628	   95.00	  105.68	 -537.31	   94.18
     17.3962	  113.00	  104.97	 -518.60	   94.01
     17.4296	  114.00	  104.30	 -516.93	   93.85
     17.4630	   99.00	  103.67	 -531.30	   93.68
     17.4965	  124.00	  103.06	 -505.69	   93.51
     17.5299	  110.00	  102.49	 -519.12	   93.35
     17.5633	  113.00	  101.94	 -515.57	   93.18
     17.5967	  119.00	  101.41	 -509.04	   93.01
     17.6301	  112.00	  100.91	 -515.54	   92.85
     17.6636	   97.00	  100.42	 -530.05	   92.68
     17.6970	  114.00	   99.96	 -512.59	   92.52
     17.7304	  109.00	   99.51	 -517.14	   92.35
     17.7638	  109.00	   99.08	 -516.71	   92.19
     17.7973	  104.00	   98.66	 -521.29	   92.02
     17.8307	   89.00	   98.26	 -535.89	   91.86
     17.8641	   98.00	   97.87	 -526.50	   91.69
     17.8975	   89.00	   97.49	 -535.12	   91.53
     17.9310	   89.00	   97.12	 -534.75	   91.37
     17.9644	  105.00	   96.77	 -518.40	   91.20
     17.9978	  112.00	   96.42	 -511.05	   91.04
     18.0312	  110.00	   96.08	 -512.71	   90.88
     18.0646	   84.00	   95.75	 -538.38	   90.71
     18.0981	  102.00	   95.43	 -520.06	   90.55
     18.1315	  114.00	   95.12	 -507.75	   90.39
     18.1649	  100.00	   94.81	 -521.44	   90.23
     18.1983	  102.00	   94.51	 -519.14	   90.06
     18.2318	   88.00	   94.22	 -532.85	   89.90
     18.2652	  101.00	   93.93	 -519.56	   89.74
     18.2986	   96.00	   93.65	 -524.28	   89.58
     18.3320	   95.00	   93.37	 -525.00	   89.42
     18.3654	   94.00	   93.10	 -525.73	   89.26
     18.3989	   96.00	   92.83	 -523.46	   89.10
     18.4323	   85.00	   92.57	 -534.20	   88.94
     18.4657	   86.00	   92.31	 -532.94	   88.77
     18.4991	  105.00	   92.06	 -513.69	   88.61
     18.5326	  100.00	   91.81	 -518.44	   88.45
     18.5660	   87.00	   91.56	 -531.19	   88.29
     18.5994	  104.00	   91.32	 -513.95	   88.14
     18.6328	   92.00	   91.08	 -525.71	   87.98
     18.6662	   96.00	   90.84	 -521.48	   87.82
     18.6997	   98.00	   90.61	 -519.24	   87.66
     18.7331	   96.00	   90.38	 -521.01	   87.50
     18.7665	   75.00	   90.15	 -541.78	   87.34
     18.7999	   92.00	   89.93	 -524.56	   87.18
     18.8334	   99.00	   89.71	 -517.34	   87.02
     18.8668	   85.00	   89.49	 -531.12	   86.87
     18.9002	  106.00	   89.27	 -509.90	   86.71
     18.9336	   75.00	   89.05	 -540.68	   86.55
     18.9671	   83.00	   88.84	 -532.47	   86.39
     19.0005	   85.00	   88.63	 -530.26	   86.24
     19.0339	   76.00	   88.42	 -539.05	   86.08
     19.0673	   73.00	   88.21	 -541.84	   85.92
     19.1007	   91.00	   88.01	 -523.64	   85.77
     19.1342	   73.00	   87.80	 -541.43	   85.61
     19.1676	   97.00	   87.60	 -517.23	   85.45
     19.2010	   96.00	   87.40	 -518.03	   85.30
     19.2344	   86.00	   87.20	 -527.83	   85.14
     19.2679	   66.00	   87.00	 -547.64	   84.99
     19.3013	   72.00	   86.81	 -541.44	   84.83
     19.3347	   89.00	   86.61	 -524.25	   84.68
     19.3681	   76.00	   86.42	 -537.05	   84.52
     19.4015	   98.00	   86.23	 -514.86	   84.37
     19.4350	   99.00	   86.04	 -513.67	   84.21
     19.4684	  100.00	   85.85	 -512.48	   84.06
     19.5018	   79.00	   85.66	 -533.29	   83.90
     19.5352	   92.00	   85.48	 -520.11	   83.75
     19.5687	   68.00	   85.29	 -543.92	   83.60
     19.6021	   84.00	   85.10	 -527.74	   83.44
     19.6355	   89.00	   84.92	 -522.55	   83.29
     19.6689	   74.00	   84.74	 -537.37	   83.14
     19.7023	   74.00	   84.56	 -537.19	   82.98
     19.7358	   74.00	   84.38	 -537.01	   82.83
     19.7692	   74.00	   84.20	 -536.83	   82.68
     19.8026	   86.00	   84.02	 -524.65	   82.53
     19.8360	   82.00	   83.84	 -528.47	   82.38
     19.8695	   96.00	   83.66	 -514.30	   82.22
     19.9029	   94.00	   83.49	 -516.12	   82.07
     19.9363	   95.00	   83.31	 -514.94	   81.92
     19.9697	  101.00	   83.14	 -508.77	   81.77
     20.0032	   75.00	   82.96	 -534.60	   81.62
     20.0366	   75.00	   82.79	 -534.42	   81.47
     20.0700	   86.00	   82.62	 -523.25	   81.32
     20.1034	   76.00	   82.45	 -533.08	   81.17
     20.1368	  105.00	   82.28	 -503.91	   81.02
     20.1703	   74.00	   82.11	 -534.74	   80.87
     20.2037	   75.00	   81.13	 -532.76	   80.72
     20.2371	   77.00	   80.57	 -530.20	   80.57
     20.2705	   85.00	   80.42	 -522.05	   80.42
     20.3040	   94.00	   80.27	 -512.90	   80.27
     20.3374	   94.00	   80.12	 -512.75	   80.12
     20.3708	   76.00	   79.97	 -530.60	   79.97
     20.4042	   88.00	   79.82	 -518.45	   79.82
     20.4376	   56.00	   79.67	 -550.31	   79.67
     20.4711	   68.00	   79.53	 -538.16	   79.53
     20.5045	   75.00	   79.38	 -531.01	   79.38
     20.5379	   84.00	   79.23	 -521.86	   79.23
     20.5713	   74.00	   79.08	 -531.72	   79.08
     20.6048	   52.00	   78.94	 -553.57	   78.94
     20.6382	   97.00	   78.79	 -508.42	   78.79
     20.6716	   81.00	   78.64	 -524.27	   78.64
     20.7050	   72.00	   78.50	 -533.13	   78.50
     20.7384	   73.00	   78.35	 -531.98	   78.35
     20.7719	   78.00	   78.20	 -526.83	   78.20
     20.8053	   84.00	   78.06	 -520.69	   78.06
     20.8387	   70.00	   77.91	 -534.54	   77.91
     20.8721	   69.00	   77.76	 -535.40	   77.76
     20.9056	   86.00	   77.62	 -518.25	   77.62
     20.9390	   76.00	   77.47	 -528.11	   77.47
     20.9724	   64.00	   77.33	 -539.96	   77.33
     21.0058	   75.00	   77.18	 -528.82	   77.18
     21.0392	   69.00	   77.04	 -534.67	   77.04
     21.0727	   74.00	   76.89	 -529.53	   76.89
     21.1061	   68.00	   76.75	 -535.38	   76.75
     21.1395	   63.00	   76.61	 -540.24	   76.61
     21.1729	   61.00	   76.46	 -542.09	   76.46
     21.2064	   76.00	   76.32	 -526.95	   76.32
     21.2398	   78.00	   76.17	 -524.81	   76.17
     21.2732	   60.00	   76.03	 -542.66	   76.03
     21.3066	   73.00	   75.89	 -529.52	   75.89
     21.3401	   75.00	   75.75	 -527.38	   75.75
     21.3735	   66.00	   75.60	 -536.23	   75.60
     21.4069	   75.00	   75.46	 -527.09	   75.46
     21.4403	   69.00	   75.32	 -532.95	   75.32
     21.4737	   76.00	   75.18	 -525.81	   75.18
     21.5072	   68.00	   75.03	 -533.67	   75.03
     21.5406	   68.00	   74.89	 -533.52	   74.89
     21.5740	   82.00	   74.75	 -519.38	   74.75
     21.6074	   62.00	   74.61	 -539.24	   74.61
     21.6409	   77.00	   74.47	 -524.10	   74.47
     21.6743	   61.00	   74.33	 -539.96	   74.33
     21.7077	   66.00	   74.19	 -534.82	   74.19
     21.7411	   59.00	   74.05	 -541.68	   74.05
     21.7745	   50.00	   73.90	 -550.54	   73.90
     21.8080	   76.00	   73.76	 -524.40	   73.76
     21.8414	   64.00	   73.62	 -536.26	   73.62
     21.8748	   60.00	   73.48	 -540.12	   73.48
     21.9082	   75.00	   73.35	 -524.98	   73.35
     21.9417	   49.00	   73.21	 -550.84	   73.21
     21.9751	   58.00	   73.07	 -541.70	   73.07
     22.0085	   64.00	   72.93	 -535.56	   72.93
     22.0419	   63.00	   72.79	 -536.42	   72.79
     22.0753	   76.00	   72.65	 -523.28	   72.65
     22.1088	   77.00	   72.51	 -522.14	   72.51
     22.1422	   66.00	   72.37	 -533.01	   72.37
     22.1756	   73.00	   72.24	 -525.87	   72.24
     22.2090	   69.00	   72.10	 -529.73	   72.10
     22.2425	   65.00	   71.96	 -533.59	   71.96
     22.2759	   76.00	   71.82	 -522.45	   71.82
     22.3093	   70.00	   71.69	 -528.32	   71.69
     22.3427	   55.00	   71.55	 -543.18	   71.55
     22.3762	   61.00	   71.41	 -537.04	   71.41
     22.4096	   69.00	   71.27	 -528.91	   71.27
     22.4430	   68.00	   71.14	 -529.77	   71.14
     22.4764	   69.00	   71.00	 -528.63	   71.00
     22.5098	   65.00	   70.87	 -532.50	   70.87
     22.5433	   68.00	   70.73	 -529.36	   70.73
     22.5767	   82.00	   70.59	 -515.23	   70.59
     22.6101	   69.00	   70.46	 -528.09	   70.46
     22.6435	   54.00	   70.32	 -542.95	   70.32
     22.6770	   58.00	   70.19	 -538.82	   70.19
     22.7104	   58.00	   70.05	 -538.68	   70.05
     22.7438	   50.00	   69.92	 -546.55	   69.92
     22.7772	   70.00	   69.78	 -526.42	   69.78
     22.8106	   79.00	   69.65	 -517.28	   69.65
     22.8441	   60.00	   69.51	 -536.15	   69.51
     22.8775	   60.00	   69.38	 -536.01	   69.38
     22.9109	   52.00	   69.25	 -543.88	   69.25
     22.9443	   74.00	   69.11	 -521.75	   69.11
     22.9778	   60.00	   68.98	 -535.61	   68.98
     23.0112	   60.00	   68.85	 -535.48	   68.85
     23.0446	   61.00	   68.71	 -534.35	   68.71
     23.0780	   64.00	   68.58	 -531.21	   68.58
     23.1114	   64.00	   68.45	 -531.08	   68.45
     23.1449	   56.00	   68.32	 -538.95	   68.32
     23.1783	   72.00	   68.18	 -522.82	   68.18
     23.2117	   65.00	   68.05	 -529.68	   68.05
     23.2451	   65.00	   67.92	 -529.55	   67.92
     23.2786	   50.00	   67.79	 -544.42	   67.79
     23.3120	   76.00	   67.66	 -518.29	   67.66
     23.3454	   55.00	   67.52	 -539.16	   67.52
     23.3788	   66.00	   67.39	 -528.03	   67.39
