 Nd hydroxide   Chi2:  3.0588  CELL:    6.42609   6.42609   3.74095   90.0000   90.0000  120.0000   SPGR: P 63/m                 TEMP:      0.00
  1   2693     1.54060     1.54439     0.00000    -0.03209     0.00000    0
   198     0     1
       0.00000      13.00000
 2Theta	Yobs	Ycal	Yobs-Ycal	Backg	Posr	(hkl)	K
     10.0098	 276.000	 124.445	-248.750	 123.240
     10.0432	 242.000	 124.275	-248.750	 123.070
     10.0767	 270.000	 124.105	-248.750	 122.900
     10.1101	 278.000	 123.935	-248.750	 122.731
     10.1435	 251.000	 123.765	-248.750	 122.561
     10.1769	 235.000	 123.596	-248.750	 122.392
     10.2103	 232.000	 123.427	-248.750	 122.223
     10.2438	 251.000	 123.258	-248.750	 122.054
     10.2772	 237.000	 123.089	-248.750	 121.885
     10.3106	 249.000	 122.921	-248.750	 121.716
     10.3440	 251.000	 122.752	-248.750	 121.548
     10.3775	 240.000	 122.584	-248.750	 121.379
     10.4109	 236.000	 122.416	-248.750	 121.211
     10.4443	 242.000	 122.248	-248.750	 121.043
     10.4777	 230.000	 122.080	-248.750	 120.875
     10.5111	 256.000	 121.912	-248.750	 120.708
     10.5446	 225.000	 121.745	-248.750	 120.541
     10.5780	 234.000	 121.578	-248.750	 120.373
     10.6114	 222.000	 121.411	-248.750	 120.206
     10.6448	 226.000	 121.244	-248.750	 120.039
     10.6783	 233.000	 121.077	-248.750	 119.873
     10.7117	 224.000	 120.911	-248.750	 119.706
     10.7451	 224.000	 120.744	-248.750	 119.540
     10.7785	 222.000	 120.578	-248.750	 119.374
     10.8120	 234.000	 120.412	-248.750	 119.208
     10.8454	 225.000	 120.246	-248.750	 119.042
     10.8788	 259.000	 120.081	-248.750	 118.876
     10.9122	 252.000	 119.915	-248.750	 118.711
     10.9456	 244.000	 119.750	-248.750	 118.545
     10.9791	 213.000	 119.585	-248.750	 118.380
     11.0125	 211.000	 119.420	-248.750	 118.215
     11.0459	 246.000	 119.255	-248.750	 118.051
     11.0793	 226.000	 119.090	-248.750	 117.886
     11.1128	 248.000	 118.926	-248.750	 117.722
     11.1462	 210.000	 118.762	-248.750	 117.557
     11.1796	 229.000	 118.598	-248.750	 117.393
     11.2130	 226.000	 118.434	-248.750	 117.229
     11.2464	 203.000	 118.270	-248.750	 117.066
     11.2799	 246.000	 118.106	-248.750	 116.902
     11.3133	 215.000	 117.943	-248.750	 116.739
     11.3467	 233.000	 117.780	-248.750	 116.575
     11.3801	 226.000	 117.617	-248.750	 116.412
     11.4136	 221.000	 117.454	-248.750	 116.250
     11.4470	 223.000	 117.291	-248.750	 116.087
     11.4804	 205.000	 117.129	-248.750	 115.924
     11.5138	 194.000	 116.967	-248.750	 115.762
     11.5472	 205.000	 116.804	-248.750	 115.600
     11.5807	 212.000	 116.642	-248.750	 115.438
     11.6141	 223.000	 116.481	-248.750	 115.276
     11.6475	 225.000	 116.319	-248.750	 115.115
     11.6809	 238.000	 116.158	-248.750	 114.953
     11.7144	 211.000	 115.996	-248.750	 114.792
     11.7478	 217.000	 115.835	-248.750	 114.631
     11.7812	 248.000	 115.674	-248.750	 114.470
     11.8146	 177.000	 115.513	-248.750	 114.309
     11.8481	 210.000	 115.353	-248.750	 114.148
     11.8815	 202.000	 115.192	-248.750	 113.988
     11.9149	 211.000	 115.032	-248.750	 113.828
     11.9483	 197.000	 114.872	-248.750	 113.668
     11.9817	 217.000	 114.712	-248.750	 113.508
     12.0152	 204.000	 114.552	-248.750	 113.348
     12.0486	 216.000	 114.393	-248.750	 113.188
     12.0820	 209.000	 114.234	-248.750	 113.029
     12.1154	 215.000	 114.074	-248.750	 112.870
     12.1489	 207.000	 113.915	-248.750	 112.711
     12.1823	 194.000	 113.756	-248.750	 112.552
     12.2157	 161.000	 113.598	-248.750	 112.393
     12.2491	 231.000	 113.439	-248.750	 112.235
     12.2825	 202.000	 113.281	-248.750	 112.076
     12.3160	 217.000	 113.123	-248.750	 111.918
     12.3494	 188.000	 112.965	-248.750	 111.760
     12.3828	 195.000	 112.807	-248.750	 111.602
     12.4162	 196.000	 112.649	-248.750	 111.445
     12.4497	 183.000	 112.492	-248.750	 111.287
     12.4831	 173.000	 112.334	-248.750	 111.130
     12.5165	 182.000	 112.177	-248.750	 110.973
     12.5499	 216.000	 112.020	-248.750	 110.816
     12.5833	 176.000	 111.863	-248.750	 110.659
     12.6168	 232.000	 111.707	-248.750	 110.502
     12.6502	 197.000	 111.550	-248.750	 110.346
     12.6836	 183.000	 111.394	-248.750	 110.189
     12.7170	 195.000	 111.238	-248.750	 110.033
     12.7505	 163.000	 111.082	-248.750	 109.877
     12.7839	 208.000	 110.926	-248.750	 109.722
     12.8173	 168.000	 110.770	-248.750	 109.566
     12.8507	 167.000	 110.615	-248.750	 109.411
     12.8841	 158.000	 110.460	-248.750	 109.255
     12.9176	 185.000	 110.305	-248.750	 109.100
     12.9510	 204.000	 110.150	-248.750	 108.945
     12.9844	 190.000	 109.995	-248.750	 108.790
     13.0178	 206.000	 113.294	-156.044	 108.636
     13.0513	 199.000	 113.221	-162.971	 108.481
     13.0847	 162.000	 113.151	-199.901	 108.327
     13.1181	 203.000	 113.084	-158.834	 108.173
     13.1515	 172.000	 113.021	-189.771	 108.019
     13.1850	 181.000	 112.961	-180.711	 107.865
     13.2184	 170.000	 112.904	-191.654	 107.712
     13.2518	 184.000	 112.852	-177.602	 107.558
     13.2852	 186.000	 112.803	-175.553	 107.405
     13.3186	 185.000	 112.759	-176.509	 107.252
     13.3521	 180.000	 112.719	-181.469	 107.099
     13.3855	 185.000	 112.684	-176.434	 106.946
     13.4189	 172.000	 112.654	-189.404	 106.794
     13.4523	 178.000	 112.629	-183.379	 106.641
     13.4858	 175.000	 112.609	-186.359	 106.489
     13.5192	 184.000	 112.596	-177.346	 106.337
     13.5526	 161.000	 112.588	-200.338	 106.185
     13.5860	 172.000	 112.587	-189.337	 106.033
     13.6194	 175.000	 112.592	-186.342	 105.882
     13.6529	 167.000	 112.605	-194.355	 105.730
     13.6863	 193.000	 112.625	-168.375	 105.579
     13.7197	 171.000	 112.653	-190.403	 105.428
     13.7531	 146.000	 112.690	-215.440	 105.277
     13.7866	 178.000	 112.736	-183.486	 105.127
     13.8200	 161.000	 112.791	-200.541	 104.976
     13.8534	 175.000	 112.857	-186.607	 104.826
     13.8868	 179.000	 112.933	-182.683	 104.675
     13.9202	 175.000	 113.021	-186.771	 104.525
     13.9537	 138.000	 113.122	-223.872	 104.375
     13.9871	 176.000	 113.236	-185.986	 104.226
     14.0205	 164.000	 113.364	-198.114	 104.076
     14.0539	 169.000	 113.507	-193.257	 103.927
     14.0874	 144.000	 113.666	-218.416	 103.778
     14.1208	 167.000	 113.843	-195.593	 103.629
     14.1542	 146.000	 114.039	-216.789	 103.480
     14.1876	 159.000	 114.255	-204.005	 103.331
     14.2211	 182.000	 114.492	-181.242	 103.182
     14.2545	 153.000	 114.753	-210.503	 103.034
     14.2879	 151.000	 115.040	-212.790	 102.886
     14.3213	 133.000	 115.354	-231.104	 102.738
     14.3547	 152.000	 115.698	-212.448	 102.590
     14.3882	 180.000	 116.074	-184.824	 102.442
     14.4216	 176.000	 116.486	-189.236	 102.294
     14.4550	 193.000	 116.936	-172.686	 102.147
     14.4884	 151.000	 117.429	-215.179	 102.000
     14.5219	 169.000	 117.967	-197.717	 101.853
     14.5553	 162.000	 118.556	-205.306	 101.706
     14.5887	 161.000	 119.200	-206.950	 101.559
     14.6221	 154.000	 119.905	-214.655	 101.413
     14.6555	 167.000	 120.678	-202.428	 101.266
     14.6890	 188.000	 121.526	-182.276	 101.120
     14.7224	 171.000	 122.456	-200.206	 100.974
     14.7558	 157.000	 123.479	-215.229	 100.828
     14.7892	 158.000	 124.604	-215.354	 100.682
     14.8227	 162.000	 125.845	-212.595	 100.537
     14.8561	 164.000	 127.215	-211.965	 100.391
     14.8895	 159.000	 128.730	-218.480	 100.246
     14.9229	 186.000	 130.410	-193.160	 100.101
     14.9563	 171.000	 132.275	-210.025	  99.956
     14.9898	 173.000	 134.353	-210.103	  99.811
     15.0232	 185.000	 136.673	-200.423	  99.667
     15.0566	 164.000	 139.270	-224.020	  99.522
     15.0900	 155.000	 142.187	-235.937	  99.378
     15.1235	 165.000	 145.475	-229.225	  99.234
     15.1569	 176.000	 149.194	-221.944	  99.090
     15.1903	 165.000	 153.418	-237.168	  98.946
     15.2237	 196.000	 158.237	-210.987	  98.802
     15.2571	 170.000	 163.760	-242.510	  98.659
     15.2906	 191.000	 170.123	-227.873	  98.516
     15.3240	 193.000	 177.497	-233.247	  98.373
     15.3574	 196.000	 186.091	-238.841	  98.230
     15.3908	 212.000	 196.173	-232.923	  98.087
     15.4243	 203.000	 208.070	-253.820	  97.944
     15.4577	 220.000	 222.199	-250.949	  97.802
     15.4911	 230.000	 239.068	-257.818	  97.659
     15.5245	 240.000	 259.307	-268.057	  97.517
     15.5580	 264.000	 283.664	-268.414	  97.375
     15.5914	 243.000	 313.020	-318.770	  97.233
     15.6248	 275.000	 348.328	-322.078	  97.092
     15.6582	 316.000	 390.529	-323.279	  96.950
     15.6916	 333.000	 440.259	-356.009	  96.809
     15.7251	 329.000	 497.392	-417.142	  96.668
     15.7585	 396.000	 560.167	-412.917	  96.527
     15.7919	 413.000	 624.215	-459.965	  96.386
     15.8253	 486.000	 681.853	-444.603	  96.245
     15.8588	 607.000	 723.060	-364.810	  96.105
     15.8922	 639.000	 738.694	-348.444	  95.964
     15.9256	 606.000	 724.879	-367.629	  95.824
     15.9590	 528.000	 685.101	-405.851	  95.684
     15.9924	 460.000	 628.217	-416.967	  95.544
     16.0259	 390.000	 564.242	-422.992	  95.404
     16.0593	 336.000	 500.997	-413.747	  95.265
     16.0927	 331.000	 443.108	-360.858	  95.125
     16.1261	 311.000	 392.494	-330.244	  94.986
     16.1596	 249.000	 349.421	-349.171	  94.847
     16.1930	 244.000	 313.286	-318.036	  94.708
     16.2264	 242.000	 283.186	-289.936	  94.569
     16.2598	 209.000	 258.154	-297.904	  94.431
     16.2932	 224.000	 237.314	-262.064	  94.292
     16.3267	 218.000	 219.899	-250.649	  94.154
     16.3601	 182.000	 205.275	-272.025	  94.016
     16.3935	 180.000	 192.922	-261.672	  93.878
     16.4269	 171.000	 182.417	-260.167	  93.740
     16.4604	 171.000	 173.425	-251.175	  93.603
     16.4938	 171.000	 165.675	-243.425	  93.465
     16.5272	 165.000	 158.951	-242.701	  93.328
     16.5606	 154.000	 153.080	-247.830	  93.191
     16.5941	 169.000	 147.926	-227.676	  93.054
     16.6275	 144.000	 143.373	-248.123	  92.917
     16.6609	 149.000	 139.334	-239.084	  92.780
     16.6943	 151.000	 135.731	-233.481	  92.644
     16.7277	 138.000	 132.503	-243.253	  92.507
     16.7612	 143.000	 129.599	-235.349	  92.371
     16.7946	 143.000	 126.977	-232.727	  92.235
     16.8280	 136.000	 124.599	-237.349	  92.099
     16.8614	 151.000	 122.436	-220.186	  91.963
     16.8949	 132.000	 120.461	-237.211	  91.828
     16.9283	 127.000	 118.652	-240.402	  91.692
     16.9617	 114.000	 116.989	-251.739	  91.557
     16.9951	 109.000	 115.458	-255.208	  91.422
     17.0285	 131.000	 114.042	-231.792	  91.287
     17.0620	 119.000	 112.731	-242.481	  91.152
     17.0954	 127.000	 111.512	-233.262	  91.018
     17.1288	 148.000	 110.377	-211.127	  90.883
     17.1622	 119.000	 109.317	-239.067	  90.749
     17.1957	 133.000	 108.326	-224.076	  90.615
     17.2291	 129.000	 107.396	-227.146	  90.481
     17.2625	 129.000	 106.522	-226.272	  90.347
     17.2959	 115.000	 105.699	-239.449	  90.213
     17.3293	 115.000	 104.922	-238.672	  90.080
     17.3628	 111.000	 104.187	-241.937	  89.947
     17.3962	 124.000	 103.492	-228.242	  89.813
     17.4296	  97.000	 102.832	-254.582	  89.680
     17.4630	 124.000	 102.204	-226.954	  89.547
     17.4965	 130.000	 101.607	-220.357	  89.415
     17.5299	  99.000	 101.037	-250.787	  89.282
     17.5633	 110.000	 100.493	-239.243	  89.150
     17.5967	 121.000	  99.973	-227.723	  89.017
     17.6301	 114.000	  99.475	-234.225	  88.885
     17.6636	 108.000	  98.997	-239.747	  88.753
     17.6970	  99.000	  98.537	-248.287	  88.622
     17.7304	  99.000	  98.096	-247.846	  88.490
     17.7638	  91.000	  97.670	-255.420	  88.358
     17.7973	 111.000	  97.260	-235.010	  88.227
     17.8307	 102.000	  96.864	-243.614	  88.096
     17.8641	 114.000	  96.482	-231.232	  87.965
     17.8975	 101.000	  96.112	-243.862	  87.834
     17.9310	 100.000	  95.753	-244.503	  87.703
     17.9644	  98.000	  95.406	-246.156	  87.573
     17.9978	 103.000	  95.069	-240.819	  87.443
     18.0312	 114.000	  94.741	-229.491	  87.312
     18.0646	  94.000	  94.423	-249.173	  87.182
     18.0981	  92.000	  94.113	-250.863	  87.052
     18.1315	 100.000	  93.811	-242.561	  86.923
     18.1649	  90.000	  93.517	-252.267	  86.793
     18.1983	 110.000	  93.230	-231.980	  86.664
     18.2318	 104.000	  92.949	-237.699	  86.534
     18.2652	  86.000	  92.676	-255.426	  86.405
     18.2986	  86.000	  92.408	-255.158	  86.276
     18.3320	 112.000	  92.146	-228.896	  86.147
     18.3654	  81.000	  91.889	-259.639	  86.019
     18.3989	 104.000	  91.638	-236.388	  85.890
     18.4323	 101.000	  91.392	-239.142	  85.762
     18.4657	  96.000	  91.150	-243.900	  85.633
     18.4991	  96.000	  90.913	-243.663	  85.505
     18.5326	 112.000	  90.680	-227.430	  85.377
     18.5660	  79.000	  90.451	-260.201	  85.250
     18.5994	 102.000	  90.225	-236.975	  85.122
     18.6328	  83.000	  90.004	-255.754	  84.995
     18.6662	  79.000	  89.786	-259.536	  84.867
     18.6997	  95.000	  89.572	-243.322	  84.740
     18.7331	  96.000	  89.360	-242.110	  84.613
     18.7665	  82.000	  89.152	-255.902	  84.486
     18.7999	 112.000	  88.946	-225.696	  84.360
     18.8334	 101.000	  88.744	-236.494	  84.233
     18.8668	 102.000	  88.544	-235.294	  84.107
     18.9002	  86.000	  88.347	-251.097	  83.981
     18.9336	  97.000	  88.152	-239.902	  83.855
     18.9671	 105.000	  87.959	-231.709	  83.729
     19.0005	  82.000	  87.769	-254.519	  83.603
     19.0339	  85.000	  87.581	-251.331	  83.477
     19.0673	  81.000	  87.395	-255.145	  83.352
     19.1007	  94.000	  87.211	-241.961	  83.227
     19.1342	  89.000	  87.029	-246.779	  83.101
     19.1676	  97.000	  86.849	-238.599	  82.976
     19.2010	  91.000	  86.671	-244.421	  82.852
     19.2344	  90.000	  86.494	-245.244	  82.727
     19.2679	  77.000	  86.319	-258.069	  82.602
     19.3013	  96.000	  86.146	-238.896	  82.478
     19.3347	  89.000	  85.974	-245.724	  82.354
     19.3681	  71.000	  85.804	-263.554	  82.230
     19.4015	  77.000	  85.635	-257.385	  82.106
     19.4350	  76.000	  85.468	-258.218	  81.982
     19.4684	  77.000	  85.302	-257.052	  81.858
     19.5018	  90.000	  85.138	-243.888	  81.735
     19.5352	 102.000	  84.974	-231.724	  81.611
     19.5687	  75.000	  84.812	-258.562	  81.488
     19.6021	  88.000	  84.918	-245.668	  81.365
     19.6355	  86.000	  84.760	-247.510	  81.242
     19.6689	  98.000	  84.736	-235.486	  81.120
     19.7023	  97.000	  84.582	-236.332	  80.997
     19.7358	  86.000	  84.429	-247.179	  80.875
     19.7692	  87.000	  84.277	-246.027	  80.752
     19.8026	  78.000	  84.126	-254.876	  80.630
     19.8360	  82.000	  83.976	-250.726	  80.508
     19.8695	  77.000	  83.827	-255.577	  80.386
     19.9029	  85.000	  83.679	-247.429	  80.265
     19.9363	  82.000	  83.532	-250.282	  80.143
     19.9697	  88.000	  83.386	-244.136	  80.022
     20.0032	  86.000	  83.240	-245.990	  79.901
     20.0366	  96.000	  83.096	-235.846	  79.780
     20.0700	  79.000	  82.952	-252.702	  79.659
     20.1034	  64.000	  82.809	-267.559	  79.538
     20.1368	  84.000	  82.667	-247.417	  79.417
     20.1703	  89.000	  82.526	-242.276	  79.297
     20.2037	  77.000	  82.386	-254.136	  79.176
     20.2371	  81.000	  82.246	-249.996	  79.056
     20.2705	  75.000	  82.107	-255.857	  78.936
     20.3040	  69.000	  81.969	-261.719	  78.816
     20.3374	  91.000	  81.832	-239.582	  78.697
     20.3708	 102.000	  81.695	-228.445	  78.577
     20.4042	  89.000	  81.559	-241.309	  78.458
     20.4376	  66.000	  81.424	-264.174	  78.338
     20.4711	  82.000	  81.289	-248.039	  78.219
     20.5045	  69.000	  81.155	-260.905	  78.100
     20.5379	  82.000	  81.021	-247.771	  77.981
     20.5713	  79.000	  81.325	-251.075	  77.863
     20.6048	  75.000	  81.197	-254.947	  77.744
     20.6382	  57.000	  81.286	-273.036	  77.626
     20.6716	  68.000	  81.160	-261.910	  77.508
     20.7050	  89.000	  81.035	-240.785	  77.389
     20.7384	  85.000	  80.911	-244.661	  77.271
     20.7719	  70.000	  80.788	-259.538	  77.154
     20.8053	  72.000	  80.665	-257.415	  77.036
     20.8387	  75.000	  80.542	-254.292	  76.919
     20.8721	  71.000	  80.421	-258.171	  76.801
     20.9056	  74.000	  80.300	-255.050	  76.684
     20.9390	  89.000	  80.179	-239.929	  76.567
     20.9724	  59.000	  80.059	-269.809	  76.450
     21.0058	  55.000	  79.940	-273.690	  76.333
     21.0392	  76.000	  79.821	-252.571	  76.217
     21.0727	  81.000	  79.703	-247.453	  76.100
     21.1061	  73.000	  79.586	-255.336	  75.984
     21.1395	  86.000	  79.469	-242.219	  75.868
     21.1729	  71.000	  79.352	-257.102	  75.752
     21.2064	  64.000	  79.237	-263.987	  75.636
     21.2398	  61.000	  79.121	-266.871	  75.520
     21.2732	  79.000	  79.007	-248.757	  75.404
     21.3066	  59.000	  78.893	-268.643	  75.289
     21.3401	  70.000	  78.779	-257.529	  75.174
     21.3735	  81.000	  78.666	-246.416	  75.058
     21.4069	  76.000	  78.554	-251.304	  74.943
     21.4403	  78.000	  78.442	-249.192	  74.829
     21.4737	  72.000	  78.331	-255.081	  74.714
     21.5072	  63.000	  78.220	-263.970	  74.599
     21.5406	  66.000	  78.110	-260.860	  74.485
     21.5740	  73.000	  78.001	-253.751	  74.371
     21.6074	  71.000	  77.892	-255.642	  74.256
     21.6409	  77.000	  77.783	-249.533	  74.142
     21.6743	  71.000	  77.675	-255.425	  74.029
     21.7077	  81.000	  77.568	-245.318	  73.915
     21.7411	  68.000	  77.461	-258.211	  73.801
     21.7745	  79.000	  77.355	-247.105	  73.688
     21.8080	  65.000	  77.249	-260.999	  73.575
     21.8414	  71.000	  77.144	-254.894	  73.461
     21.8748	  59.000	  77.040	-266.790	  73.349
     21.9082	  60.000	  76.936	-265.686	  73.236
     21.9417	  66.000	  76.833	-259.583	  73.123
     21.9751	  72.000	  76.730	-253.480	  73.010
     22.0085	  60.000	  76.628	-265.378	  72.898
     22.0419	  66.000	  76.526	-259.276	  72.786
     22.0753	  57.000	  76.425	-268.175	  72.674
     22.1088	  63.000	  76.325	-262.075	  72.562
     22.1422	  75.000	  76.225	-249.975	  72.450
     22.1756	  74.000	  76.126	-250.876	  72.338
     22.2090	  72.000	  76.027	-252.777	  72.227
     22.2425	  78.000	  75.930	-246.680	  72.115
     22.2759	  87.000	  75.832	-237.582	  72.004
     22.3093	  66.000	  75.735	-258.485	  71.893
     22.3427	  56.000	  75.639	-268.389	  71.782
     22.3762	  64.000	  75.544	-260.294	  71.671
     22.4096	  75.000	  75.449	-249.199	  71.560
     22.4430	  84.000	  75.355	-240.105	  71.450
     22.4764	  65.000	  75.261	-259.011	  71.340
     22.5098	  65.000	  75.169	-258.919	  71.229
     22.5433	  76.000	  75.076	-247.826	  71.119
     22.5767	  64.000	  74.985	-259.735	  71.009
     22.6101	  66.000	  74.894	-257.644	  70.899
     22.6435	  73.000	  74.804	-250.554	  70.790
     22.6770	  77.000	  74.715	-246.465	  70.680
     22.7104	  63.000	  74.626	-260.376	  70.571
     22.7438	  57.000	  74.538	-266.288	  70.462
     22.7772	  71.000	  74.451	-252.201	  70.352
     22.8106	  76.000	  74.364	-247.114	  70.243
     22.8441	  65.000	  74.279	-258.029	  70.135
     22.8775	  55.000	  74.194	-267.944	  70.026
     22.9109	  52.000	  74.110	-270.860	  69.917
     22.9443	  86.000	  74.026	-236.776	  69.809
     22.9778	  64.000	  73.944	-258.694	  69.701
     23.0112	  73.000	  73.862	-249.612	  69.593
     23.0446	  72.000	  73.781	-250.531	  69.485
     23.0780	  57.000	  73.701	-265.451	  69.377
     23.1114	  63.000	  73.622	-259.372	  69.269
     23.1449	  62.000	  73.544	-260.294	  69.162
     23.1783	  68.000	  73.466	-254.216	  69.054
     23.2117	  84.000	  73.390	-238.140	  68.947
     23.2451	  74.000	  73.314	-248.064	  68.840
     23.2786	  61.000	  73.240	-260.990	  68.733
     23.3120	  75.000	  73.166	-246.916	  68.626
     23.3454	  71.000	  73.093	-250.843	  68.519
     23.3788	  60.000	  73.022	-261.772	  68.413
