ZnO hexagonal   Chi2:  2.0154  CELL:    3.24973   3.24973   5.20628   90.0000   90.0000  120.0000   SPGR: P 63 m c               TEMP:      0.00
  1   3291     1.54060     1.54439     0.00000    -0.05127     0.00000    0
    56     0     1
       0.00000      30.00000
 2Theta	Yobs	Ycal	Yobs-Ycal	Backg	Posr	(hkl)	K
     20.0231	  181.00	  205.31	-1559.00	  188.06
     20.0565	  200.00	  205.18	-1559.00	  187.93
     20.0900	  216.00	  205.06	-1559.00	  187.81
     20.1234	  172.00	  204.93	-1559.00	  187.68
     20.1568	  202.00	  204.80	-1559.00	  187.55
     20.1902	  218.00	  204.68	-1559.00	  187.43
     20.2236	  192.00	  204.55	-1559.00	  187.30
     20.2571	  193.00	  204.42	-1559.00	  187.17
     20.2905	  170.00	  204.30	-1559.00	  187.05
     20.3239	  177.00	  204.17	-1559.00	  186.92
     20.3573	  217.00	  204.05	-1559.00	  186.79
     20.3908	  192.00	  203.92	-1559.00	  186.67
     20.4242	  190.00	  203.79	-1559.00	  186.54
     20.4576	  181.00	  203.67	-1559.00	  186.42
     20.4910	  169.00	  203.54	-1559.00	  186.29
     20.5245	  178.00	  203.42	-1559.00	  186.16
     20.5579	  206.00	  203.29	-1559.00	  186.04
     20.5913	  170.00	  203.16	-1559.00	  185.91
     20.6247	  216.00	  203.04	-1559.00	  185.79
     20.6581	  181.00	  202.91	-1559.00	  185.66
     20.6916	  197.00	  202.79	-1559.00	  185.54
     20.7250	  189.00	  202.66	-1559.00	  185.41
     20.7584	  173.00	  202.54	-1559.00	  185.29
     20.7918	  200.00	  202.41	-1559.00	  185.16
     20.8253	  189.00	  202.29	-1559.00	  185.04
     20.8587	  206.00	  202.16	-1559.00	  184.91
     20.8921	  197.00	  202.04	-1559.00	  184.79
     20.9255	  188.00	  201.91	-1559.00	  184.66
     20.9589	  202.00	  201.79	-1559.00	  184.54
     20.9924	  190.00	  201.66	-1559.00	  184.41
     21.0258	  198.00	  201.54	-1559.00	  184.29
     21.0592	  158.00	  201.42	-1559.00	  184.16
     21.0926	  166.00	  201.29	-1559.00	  184.04
     21.1261	  183.00	  201.17	-1559.00	  183.92
     21.1595	  178.00	  201.04	-1559.00	  183.79
     21.1929	  194.00	  200.92	-1559.00	  183.67
     21.2263	  190.00	  200.80	-1559.00	  183.54
     21.2597	  183.00	  200.67	-1559.00	  183.42
     21.2932	  189.00	  200.55	-1559.00	  183.30
     21.3266	  169.00	  200.42	-1559.00	  183.17
     21.3600	  183.00	  200.30	-1559.00	  183.05
     21.3934	  198.00	  200.18	-1559.00	  182.93
     21.4269	  189.00	  200.05	-1559.00	  182.80
     21.4603	  202.00	  199.93	-1559.00	  182.68
     21.4937	  185.00	  199.81	-1559.00	  182.56
     21.5271	  198.00	  199.68	-1559.00	  182.43
     21.5605	  194.00	  199.56	-1559.00	  182.31
     21.5940	  195.00	  199.44	-1559.00	  182.19
     21.6274	  185.00	  199.32	-1559.00	  182.06
     21.6608	  171.00	  199.19	-1559.00	  181.94
     21.6942	  199.00	  199.07	-1559.00	  181.82
     21.7277	  179.00	  198.95	-1559.00	  181.70
     21.7611	  196.00	  198.83	-1559.00	  181.57
     21.7945	  197.00	  198.70	-1559.00	  181.45
     21.8279	  170.00	  198.58	-1559.00	  181.33
     21.8614	  197.00	  198.46	-1559.00	  181.21
     21.8948	  193.00	  198.34	-1559.00	  181.08
     21.9282	  193.00	  198.21	-1559.00	  180.96
     21.9616	  190.00	  198.09	-1559.00	  180.84
     21.9950	  232.00	  197.97	-1559.00	  180.72
     22.0285	  203.00	  197.85	-1559.00	  180.60
     22.0619	  198.00	  197.73	-1559.00	  180.47
     22.0953	  196.00	  197.61	-1559.00	  180.35
     22.1287	  194.00	  197.48	-1559.00	  180.23
     22.1622	  184.00	  197.36	-1559.00	  180.11
     22.1956	  196.00	  197.24	-1559.00	  179.99
     22.2290	  190.00	  197.12	-1559.00	  179.87
     22.2624	  168.00	  197.00	-1559.00	  179.75
     22.2958	  168.00	  196.88	-1559.00	  179.63
     22.3293	  185.00	  196.76	-1559.00	  179.50
     22.3627	  176.00	  196.64	-1559.00	  179.38
     22.3961	  167.00	  196.51	-1559.00	  179.26
     22.4295	  184.00	  196.39	-1559.00	  179.14
     22.4630	  167.00	  196.27	-1559.00	  179.02
     22.4964	  183.00	  196.15	-1559.00	  178.90
     22.5298	  185.00	  196.03	-1559.00	  178.78
     22.5632	  184.00	  195.91	-1559.00	  178.66
     22.5966	  181.00	  195.79	-1559.00	  178.54
     22.6301	  182.00	  195.67	-1559.00	  178.42
     22.6635	  186.00	  195.55	-1559.00	  178.30
     22.6969	  194.00	  195.43	-1559.00	  178.18
     22.7303	  213.00	  195.31	-1559.00	  178.06
     22.7638	  173.00	  195.19	-1559.00	  177.94
     22.7972	  180.00	  195.07	-1559.00	  177.82
     22.8306	  181.00	  194.95	-1559.00	  177.70
     22.8640	  179.00	  194.83	-1559.00	  177.58
     22.8974	  186.00	  194.71	-1559.00	  177.46
     22.9309	  168.00	  194.59	-1559.00	  177.34
     22.9643	  189.00	  194.47	-1559.00	  177.22
     22.9977	  164.00	  194.35	-1559.00	  177.10
     23.0311	  178.00	  194.23	-1559.00	  176.98
     23.0646	  188.00	  194.12	-1559.00	  176.86
     23.0980	  195.00	  194.00	-1559.00	  176.74
     23.1314	  176.00	  193.88	-1559.00	  176.63
     23.1648	  154.00	  193.76	-1559.00	  176.51
     23.1983	  170.00	  193.64	-1559.00	  176.39
     23.2317	  165.00	  193.52	-1559.00	  176.27
     23.2651	  184.00	  193.40	-1559.00	  176.15
     23.2985	  200.00	  193.28	-1559.00	  176.03
     23.3319	  192.00	  193.17	-1559.00	  175.91
     23.3654	  191.00	  193.05	-1559.00	  175.79
     23.3988	  179.00	  192.93	-1559.00	  175.68
     23.4322	  195.00	  192.81	-1559.00	  175.56
     23.4656	  203.00	  192.69	-1559.00	  175.44
     23.4991	  184.00	  192.57	-1559.00	  175.32
     23.5325	  215.00	  192.46	-1559.00	  175.20
     23.5659	  166.00	  192.34	-1559.00	  175.09
     23.5993	  192.00	  192.22	-1559.00	  174.97
     23.6327	  165.00	  192.10	-1559.00	  174.85
     23.6662	  186.00	  191.99	-1559.00	  174.73
     23.6996	  183.00	  191.87	-1559.00	  174.62
     23.7330	  184.00	  191.75	-1559.00	  174.50
     23.7664	  182.00	  191.63	-1559.00	  174.38
     23.7999	  195.00	  191.52	-1559.00	  174.26
     23.8333	  175.00	  191.40	-1559.00	  174.15
     23.8667	  162.00	  191.28	-1559.00	  174.03
     23.9001	  179.00	  191.16	-1559.00	  173.91
     23.9335	  175.00	  191.05	-1559.00	  173.80
     23.9670	  158.00	  190.93	-1559.00	  173.68
     24.0004	  193.00	  190.81	-1559.00	  173.56
     24.0338	  182.00	  190.70	-1559.00	  173.45
     24.0672	  167.00	  190.58	-1559.00	  173.33
     24.1007	  189.00	  190.46	-1559.00	  173.21
     24.1341	  157.00	  190.35	-1559.00	  173.10
     24.1675	  179.00	  190.23	-1559.00	  172.98
     24.2009	  155.00	  190.11	-1559.00	  172.86
     24.2344	  202.00	  190.00	-1559.00	  172.75
     24.2678	  178.00	  189.88	-1559.00	  172.63
     24.3012	  185.00	  189.77	-1559.00	  172.51
     24.3346	  167.00	  189.65	-1559.00	  172.40
     24.3680	  168.00	  189.53	-1559.00	  172.28
     24.4015	  192.00	  189.42	-1559.00	  172.17
     24.4349	  158.00	  189.30	-1559.00	  172.05
     24.4683	  164.00	  189.19	-1559.00	  171.94
     24.5017	  180.00	  189.07	-1559.00	  171.82
     24.5352	  170.00	  188.96	-1559.00	  171.70
     24.5686	  185.00	  188.84	-1559.00	  171.59
     24.6020	  192.00	  188.73	-1559.00	  171.47
     24.6354	  166.00	  188.61	-1559.00	  171.36
     24.6688	  161.00	  188.50	-1559.00	  171.24
     24.7023	  186.00	  188.38	-1559.00	  171.13
     24.7357	  178.00	  188.27	-1559.00	  171.01
     24.7691	  171.00	  188.15	-1559.00	  170.90
     24.8025	  171.00	  188.04	-1559.00	  170.78
     24.8360	  171.00	  187.92	-1559.00	  170.67
     24.8694	  178.00	  187.81	-1559.00	  170.56
     24.9028	  165.00	  187.69	-1559.00	  170.44
     24.9362	  172.00	  187.58	-1559.00	  170.33
     24.9696	  181.00	  187.46	-1559.00	  170.21
     25.0031	  169.00	  187.35	-1559.00	  170.10
     25.0365	  184.00	  187.24	-1559.00	  169.98
     25.0699	  186.00	  187.12	-1559.00	  169.87
     25.1033	  163.00	  187.01	-1559.00	  169.76
     25.1368	  131.00	  186.89	-1559.00	  169.64
     25.1702	  164.00	  186.78	-1559.00	  169.53
     25.2036	  199.00	  186.67	-1559.00	  169.41
     25.2370	  188.00	  186.55	-1559.00	  169.30
     25.2705	  166.00	  186.44	-1559.00	  169.19
     25.3039	  191.00	  186.33	-1559.00	  169.07
     25.3373	  173.00	  186.21	-1559.00	  168.96
     25.3707	  175.00	  186.10	-1559.00	  168.85
     25.4041	  159.00	  185.99	-1559.00	  168.73
     25.4376	  164.00	  185.87	-1559.00	  168.62
     25.4710	  192.00	  185.76	-1559.00	  168.51
     25.5044	  189.00	  185.65	-1559.00	  168.39
     25.5378	  172.00	  185.53	-1559.00	  168.28
     25.5713	  169.00	  185.42	-1559.00	  168.17
     25.6047	  179.00	  185.31	-1559.00	  168.06
     25.6381	  178.00	  185.19	-1559.00	  167.94
     25.6715	  178.00	  185.08	-1559.00	  167.83
     25.7049	  168.00	  184.97	-1559.00	  167.72
     25.7384	  170.00	  184.86	-1559.00	  167.61
     25.7718	  170.00	  184.74	-1559.00	  167.49
     25.8052	  165.00	  184.63	-1559.00	  167.38
     25.8386	  180.00	  184.52	-1559.00	  167.27
     25.8721	  180.00	  184.41	-1559.00	  167.16
     25.9055	  152.00	  184.30	-1559.00	  167.04
     25.9389	  179.00	  184.18	-1559.00	  166.93
     25.9723	  175.00	  184.07	-1559.00	  166.82
     26.0057	  189.00	  183.96	-1559.00	  166.71
     26.0392	  177.00	  183.85	-1559.00	  166.60
     26.0726	  186.00	  183.74	-1559.00	  166.49
     26.1060	  153.00	  183.63	-1559.00	  166.37
     26.1394	  167.00	  183.51	-1559.00	  166.26
     26.1729	  181.00	  183.40	-1559.00	  166.15
     26.2063	  193.00	  183.29	-1559.00	  166.04
     26.2397	  161.00	  183.18	-1559.00	  165.93
     26.2731	  170.00	  183.07	-1559.00	  165.82
     26.3065	  177.00	  182.96	-1559.00	  165.71
     26.3400	  157.00	  182.85	-1559.00	  165.60
     26.3734	  159.00	  182.74	-1559.00	  165.48
     26.4068	  188.00	  182.63	-1559.00	  165.37
     26.4402	  163.00	  182.52	-1559.00	  165.26
     26.4737	  165.00	  182.40	-1559.00	  165.15
     26.5071	  167.00	  182.29	-1559.00	  165.04
     26.5405	  189.00	  182.18	-1559.00	  164.93
     26.5739	  170.00	  182.07	-1559.00	  164.82
     26.6074	  157.00	  181.96	-1559.00	  164.71
     26.6408	  166.00	  181.85	-1559.00	  164.60
     26.6742	  183.00	  181.74	-1559.00	  164.49
     26.7076	  155.00	  181.63	-1559.00	  164.38
     26.7410	  188.00	  181.52	-1559.00	  164.27
     26.7745	  158.00	  181.41	-1559.00	  164.16
     26.8079	  165.00	  181.30	-1559.00	  164.05
     26.8413	  168.00	  181.19	-1559.00	  163.94
     26.8747	  157.00	  181.08	-1559.00	  163.83
     26.9082	  168.00	  180.97	-1559.00	  163.72
     26.9416	  178.00	  180.86	-1559.00	  163.61
     26.9750	  173.00	  180.76	-1559.00	  163.50
     27.0084	  176.00	  180.65	-1559.00	  163.39
     27.0418	  162.00	  180.54	-1559.00	  163.28
     27.0753	  167.00	  180.43	-1559.00	  163.18
     27.1087	  175.00	  180.32	-1559.00	  163.07
     27.1421	  181.00	  180.21	-1559.00	  162.96
     27.1755	  202.00	  180.10	-1559.00	  162.85
     27.2090	  172.00	  179.99	-1559.00	  162.74
     27.2424	  196.00	  179.88	-1559.00	  162.63
     27.2758	  163.00	  179.77	-1559.00	  162.52
     27.3092	  175.00	  179.67	-1559.00	  162.41
     27.3426	  166.00	  179.56	-1559.00	  162.31
     27.3761	  176.00	  179.45	-1559.00	  162.20
     27.4095	  194.00	  179.34	-1559.00	  162.09
     27.4429	  181.00	  179.23	-1559.00	  161.98
     27.4763	  158.00	  179.12	-1559.00	  161.87
     27.5098	  149.00	  179.02	-1559.00	  161.76
     27.5432	  164.00	  178.91	-1559.00	  161.66
     27.5766	  169.00	  178.80	-1559.00	  161.55
     27.6100	  154.00	  178.69	-1559.00	  161.44
     27.6434	  169.00	  178.58	-1559.00	  161.33
     27.6769	  150.00	  178.48	-1559.00	  161.23
     27.7103	  171.00	  178.37	-1559.00	  161.12
     27.7437	  169.00	  178.26	-1559.00	  161.01
     27.7771	  164.00	  178.15	-1559.00	  160.90
     27.8106	  175.00	  178.05	-1559.00	  160.80
     27.8440	  145.00	  177.94	-1559.00	  160.69
     27.8774	  188.00	  177.83	-1559.00	  160.58
     27.9108	  177.00	  177.73	-1559.00	  160.47
     27.9443	  177.00	  177.62	-1559.00	  160.37
     27.9777	  182.00	  177.51	-1559.00	  160.26
     28.0111	  168.00	  177.40	-1559.00	  160.15
     28.0445	  200.00	  177.30	-1559.00	  160.05
     28.0779	  189.00	  177.19	-1559.00	  159.94
     28.1114	  164.00	  177.08	-1559.00	  159.83
     28.1448	  138.00	  176.98	-1559.00	  159.73
     28.1782	  170.00	  176.87	-1559.00	  159.62
     28.2116	  153.00	  176.76	-1559.00	  159.51
     28.2451	  151.00	  176.66	-1559.00	  159.41
     28.2785	  161.00	  176.55	-1559.00	  159.30
     28.3119	  173.00	  176.45	-1559.00	  159.19
     28.3453	  155.00	  176.34	-1559.00	  159.09
     28.3787	  156.00	  176.23	-1559.00	  158.98
     28.4122	  155.00	  176.13	-1559.00	  158.88
     28.4456	  162.00	  176.02	-1559.00	  158.77
     28.4790	  195.00	  175.92	-1559.00	  158.66
     28.5124	  178.00	  175.81	-1559.00	  158.56
     28.5459	  151.00	  175.71	-1559.00	  158.45
     28.5793	  195.00	  175.60	-1559.00	  158.35
     28.6127	  170.00	  175.49	-1559.00	  158.24
     28.6461	  170.00	  175.39	-1559.00	  158.14
     28.6795	  151.00	  175.28	-1559.00	  158.03
     28.7130	  181.00	  175.18	-1559.00	  157.93
     28.7464	  157.00	  175.07	-1559.00	  157.82
     28.7798	  150.00	  174.97	-1559.00	  157.72
     28.8132	  171.00	  174.86	-1559.00	  157.61
     28.8467	  181.00	  174.76	-1559.00	  157.51
     28.8801	  153.00	  174.65	-1559.00	  157.40
     28.9135	  172.00	  174.55	-1559.00	  157.30
     28.9469	  197.00	  174.44	-1559.00	  157.19
     28.9804	  180.00	  174.34	-1559.00	  157.09
     29.0138	  194.00	  174.24	-1559.00	  156.98
     29.0472	  181.00	  174.13	-1559.00	  156.88
     29.0806	  132.00	  174.03	-1559.00	  156.77
     29.1140	  149.00	  173.92	-1559.00	  156.67
     29.1475	  183.00	  173.82	-1559.00	  156.57
     29.1809	  157.00	  173.71	-1559.00	  156.46
     29.2143	  155.00	  173.61	-1559.00	  156.36
     29.2477	  162.00	  173.51	-1559.00	  156.25
     29.2812	  190.00	  173.40	-1559.00	  156.15
     29.3146	  164.00	  173.30	-1559.00	  156.05
     29.3480	  164.00	  173.19	-1559.00	  155.94
     29.3814	  157.00	  173.09	-1559.00	  155.84
     29.4148	  175.00	  172.99	-1559.00	  155.74
     29.4483	  170.00	  172.88	-1559.00	  155.63
     29.4817	  179.00	  172.78	-1559.00	  155.53
     29.5151	  159.00	  172.68	-1559.00	  155.43
     29.5485	  164.00	  172.57	-1559.00	  155.32
     29.5820	  169.00	  172.47	-1559.00	  155.22
     29.6154	  157.00	  172.37	-1559.00	  155.12
     29.6488	  158.00	  172.27	-1559.00	  155.01
     29.6822	  154.00	  172.16	-1559.00	  154.91
     29.7156	  148.00	  172.06	-1559.00	  154.81
     29.7491	  158.00	  171.96	-1559.00	  154.71
     29.7825	  153.00	  171.85	-1559.00	  154.60
     29.8159	  154.00	  171.75	-1559.00	  154.50
     29.8493	  170.00	  171.65	-1559.00	  154.40
     29.8828	  179.00	  171.55	-1559.00	  154.29
     29.9162	  154.00	  171.44	-1559.00	  154.19
     29.9496	  163.00	  171.34	-1559.00	  154.09
     29.9830	  154.00	  171.24	-1559.00	  153.99
     30.0164	  168.00	  171.14	-1562.14	  153.89
     30.0499	  151.00	  173.62	-1581.62	  153.78
     30.0833	  159.00	  173.62	-1573.62	  153.68
     30.1167	  148.00	  173.63	-1584.63	  153.58
     30.1501	  162.00	  173.65	-1570.65	  153.48
     30.1836	  168.00	  173.67	-1564.67	  153.38
     30.2170	  169.00	  173.71	-1563.71	  153.27
     30.2504	  167.00	  173.75	-1565.75	  153.17
     30.2838	  151.00	  173.80	-1581.80	  153.07
     30.3173	  188.00	  173.86	-1544.86	  152.97
     30.3507	  185.00	  173.94	-1547.94	  152.87
     30.3841	  197.00	  174.03	-1536.03	  152.77
     30.4175	  177.00	  174.13	-1556.13	  152.67
     30.4509	  158.00	  174.25	-1575.25	  152.57
     30.4844	  149.00	  174.39	-1584.39	  152.46
     30.5178	  212.00	  174.54	-1521.54	  152.36
     30.5512	  178.00	  174.72	-1555.72	  152.26
     30.5846	  190.00	  174.92	-1543.92	  152.16
     30.6181	  213.00	  175.15	-1521.15	  152.06
     30.6515	  218.00	  175.41	-1516.41	  151.96
     30.6849	  197.00	  175.71	-1537.71	  151.86
     30.7183	  195.00	  176.05	-1540.05	  151.76
     30.7517	  184.00	  176.43	-1551.43	  151.66
     30.7852	  205.00	  176.86	-1530.86	  151.56
     30.8186	  189.00	  177.34	-1547.34	  151.46
     30.8520	  211.00	  177.90	-1525.90	  151.36
     30.8854	  202.00	  178.53	-1535.53	  151.26
     30.9189	  190.00	  179.26	-1548.26	  151.16
     30.9523	  212.00	  180.44	-1527.44	  151.06
     30.9857	  194.00	  181.40	-1546.40	  150.96
     31.0191	  194.00	  182.69	-1547.69	  150.86
     31.0525	  182.00	  183.98	-1560.98	  150.76
     31.0860	  199.00	  185.49	-1545.49	  150.66
     31.1194	  238.00	  187.25	-1508.25	  150.56
     31.1528	  210.00	  189.34	-1538.34	  150.46
     31.1862	  196.00	  191.83	-1554.83	  150.36
     31.2197	  215.00	  194.82	-1538.82	  150.26
     31.2531	  204.00	  198.46	-1553.46	  150.16
     31.2865	  218.00	  202.92	-1543.92	  150.06
     31.3199	  219.00	  208.49	-1548.49	  149.96
     31.3534	  240.00	  215.54	-1534.54	  149.87
     31.3868	  246.00	  224.63	-1537.63	  149.77
     31.4202	  284.00	  236.63	-1511.63	  149.67
     31.4536	  280.00	  252.90	-1531.90	  149.57
     31.4870	  369.00	  276.01	-1466.01	  149.47
     31.5205	  390.00	  312.34	-1481.34	  149.37
     31.5539	  467.00	  381.92	-1473.92	  149.27
     31.5873	  594.00	  540.76	-1505.76	  149.17
     31.6207	  901.00	  896.33	-1554.33	  149.08
     31.6542	 1769.00	 1549.99	-1339.99	  148.98
     31.6876	 3307.00	 2426.09	 -678.09	  148.88
     31.7210	 4073.00	 3061.09	 -547.09	  148.78
     31.7544	 3803.00	 3005.35	 -761.35	  148.68
     31.7878	 3114.00	 2558.83	-1003.83	  148.59
     31.8213	 2258.00	 1915.61	-1216.61	  148.49
     31.8547	 1419.00	 1242.18	-1382.18	  148.39
     31.8881	  770.00	  758.36	-1547.36	  148.29
     31.9215	  530.00	  486.76	-1515.76	  148.19
     31.9550	  383.00	  357.11	-1533.11	  148.10
     31.9884	  333.00	  296.95	-1522.95	  148.00
     32.0218	  282.00	  264.84	-1541.84	  147.90
     32.0552	  264.00	  244.31	-1539.31	  147.80
     32.0886	  203.00	  229.73	-1585.73	  147.71
     32.1221	  240.00	  218.86	-1537.86	  147.61
     32.1555	  238.00	  210.53	-1531.53	  147.51
     32.1889	  233.00	  204.00	-1530.00	  147.42
     32.2223	  237.00	  198.78	-1520.78	  147.32
     32.2558	  227.00	  194.54	-1526.54	  147.22
     32.2892	  200.00	  191.06	-1550.06	  147.12
     32.3226	  212.00	  188.16	-1535.16	  147.03
     32.3560	  177.00	  185.71	-1567.71	  146.93
     32.3895	  175.00	  183.63	-1567.63	  146.83
     32.4229	  195.00	  181.85	-1545.85	  146.74
     32.4563	  179.00	  180.31	-1560.31	  146.64
     32.4897	  182.00	  178.97	-1555.97	  146.55
     32.5231	  173.00	  177.80	-1563.80	  146.45
     32.5566	  151.00	  176.77	-1584.77	  146.35
     32.5900	  169.00	  175.85	-1565.85	  146.26
     32.6234	  203.00	  175.05	-1531.05	  146.16
     32.6568	  165.00	  174.33	-1568.33	  146.06
     32.6903	  184.00	  173.68	-1548.68	  145.97
     32.7237	  176.00	  173.11	-1556.11	  145.87
     32.7571	  168.00	  173.49	-1564.49	  145.78
     32.7905	  164.00	  173.04	-1568.04	  145.68
     32.8239	  154.00	  172.65	-1577.65	  145.59
     32.8574	  158.00	  172.75	-1573.75	  145.49
     32.8908	  197.00	  172.45	-1534.45	  145.39
     32.9242	  170.00	  172.18	-1561.18	  145.30
     32.9576	  178.00	  171.96	-1552.96	  145.20
     32.9911	  168.00	  171.76	-1562.76	  145.11
     33.0245	  173.00	  171.60	-1557.60	  145.01
     33.0579	  183.00	  171.47	-1547.47	  144.92
     33.0913	  189.00	  171.37	-1541.37	  144.82
     33.1247	  175.00	  171.31	-1555.31	  144.73
     33.1582	  188.00	  171.27	-1542.27	  144.63
     33.1916	  211.00	  171.26	-1519.26	  144.54
     33.2250	  171.00	  171.29	-1559.29	  144.44
     33.2584	  203.00	  171.34	-1527.34	  144.35
     33.2919	  163.00	  171.44	-1567.44	  144.25
     33.3253	  179.00	  171.57	-1551.57	  144.16
     33.3587	  202.00	  171.74	-1528.74	  144.07
     33.3921	  186.00	  171.95	-1544.95	  143.97
