ZnO hexagonal   Chi2:  1.7269  CELL:    3.25021   3.25021   5.20706   90.0000   90.0000  120.0000   SPGR: P 63 m c               TEMP:      0.00
  1   3291     1.54060     1.54439     0.00000     0.02787     0.00000    0
    56     0     1
       0.00000      30.00000
 2Theta	Yobs	Ycal	Yobs-Ycal	Backg	Posr	(hkl)	K
     20.0231	  282.00	  251.64	-2078.87	  190.78
     20.0565	  199.00	  251.63	-2078.87	  190.77
     20.0900	  222.00	  251.63	-2078.87	  190.77
     20.1234	  260.00	  251.62	-2078.87	  190.77
     20.1568	  208.00	  251.62	-2078.87	  190.76
     20.1902	  233.00	  251.61	-2078.87	  190.76
     20.2236	  227.00	  251.61	-2078.87	  190.75
     20.2571	  249.00	  251.61	-2078.87	  190.75
     20.2905	  235.00	  251.60	-2078.87	  190.74
     20.3239	  210.00	  251.60	-2078.87	  190.74
     20.3573	  243.00	  251.59	-2078.87	  190.73
     20.3908	  237.00	  251.59	-2078.87	  190.73
     20.4242	  243.00	  251.58	-2078.87	  190.72
     20.4576	  250.00	  251.58	-2078.87	  190.72
     20.4910	  203.00	  251.57	-2078.87	  190.71
     20.5245	  260.00	  251.57	-2078.87	  190.71
     20.5579	  230.00	  251.56	-2078.87	  190.70
     20.5913	  218.00	  251.56	-2078.87	  190.70
     20.6247	  220.00	  251.55	-2078.87	  190.69
     20.6581	  219.00	  251.55	-2078.87	  190.69
     20.6916	  232.00	  251.54	-2078.87	  190.68
     20.7250	  221.00	  251.54	-2078.87	  190.68
     20.7584	  233.00	  251.53	-2078.87	  190.68
     20.7918	  246.00	  251.53	-2078.87	  190.67
     20.8253	  232.00	  251.52	-2078.87	  190.67
     20.8587	  237.00	  251.52	-2078.87	  190.66
     20.8921	  232.00	  251.51	-2078.87	  190.66
     20.9255	  251.00	  251.51	-2078.87	  190.65
     20.9589	  235.00	  251.51	-2078.87	  190.65
     20.9924	  251.00	  251.50	-2078.87	  190.64
     21.0258	  234.00	  251.50	-2078.87	  190.64
     21.0592	  221.00	  251.49	-2078.87	  190.63
     21.0926	  251.00	  251.49	-2078.87	  190.63
     21.1261	  276.00	  251.48	-2078.87	  190.62
     21.1595	  248.00	  251.48	-2078.87	  190.62
     21.1929	  248.00	  251.47	-2078.87	  190.61
     21.2263	  239.00	  251.47	-2078.87	  190.61
     21.2597	  255.00	  251.46	-2078.87	  190.60
     21.2932	  223.00	  251.46	-2078.87	  190.60
     21.3266	  250.00	  251.45	-2078.87	  190.59
     21.3600	  242.00	  251.45	-2078.87	  190.59
     21.3934	  220.00	  251.44	-2078.87	  190.58
     21.4269	  231.00	  251.44	-2078.87	  190.58
     21.4603	  249.00	  251.43	-2078.87	  190.57
     21.4937	  209.00	  251.43	-2078.87	  190.57
     21.5271	  224.00	  251.42	-2078.87	  190.56
     21.5605	  246.00	  251.42	-2078.87	  190.56
     21.5940	  245.00	  251.41	-2078.87	  190.56
     21.6274	  237.00	  251.41	-2078.87	  190.55
     21.6608	  240.00	  251.40	-2078.87	  190.55
     21.6942	  230.00	  251.40	-2078.87	  190.54
     21.7277	  237.00	  251.39	-2078.87	  190.54
     21.7611	  209.00	  251.39	-2078.87	  190.53
     21.7945	  233.00	  251.38	-2078.87	  190.53
     21.8279	  253.00	  251.38	-2078.87	  190.52
     21.8614	  232.00	  251.37	-2078.87	  190.52
     21.8948	  210.00	  251.37	-2078.87	  190.51
     21.9282	  234.00	  251.37	-2078.87	  190.51
     21.9616	  238.00	  251.36	-2078.87	  190.50
     21.9950	  239.00	  251.36	-2078.87	  190.50
     22.0285	  259.00	  251.35	-2078.87	  190.49
     22.0619	  215.00	  251.35	-2078.87	  190.49
     22.0953	  280.00	  251.34	-2078.87	  190.48
     22.1287	  252.00	  251.34	-2078.87	  190.48
     22.1622	  240.00	  251.33	-2078.87	  190.47
     22.1956	  222.00	  251.33	-2078.87	  190.47
     22.2290	  230.00	  251.32	-2078.87	  190.46
     22.2624	  240.00	  251.32	-2078.87	  190.46
     22.2958	  225.00	  251.31	-2078.87	  190.45
     22.3293	  194.00	  251.31	-2078.87	  190.45
     22.3627	  234.00	  251.30	-2078.87	  190.44
     22.3961	  239.00	  251.30	-2078.87	  190.44
     22.4295	  231.00	  251.29	-2078.87	  190.43
     22.4630	  242.00	  251.29	-2078.87	  190.43
     22.4964	  227.00	  251.28	-2078.87	  190.42
     22.5298	  251.00	  251.28	-2078.87	  190.42
     22.5632	  227.00	  251.27	-2078.87	  190.41
     22.5966	  215.00	  251.27	-2078.87	  190.41
     22.6301	  274.00	  251.26	-2078.87	  190.40
     22.6635	  257.00	  251.26	-2078.87	  190.40
     22.6969	  233.00	  251.25	-2078.87	  190.39
     22.7303	  230.00	  251.25	-2078.87	  190.39
     22.7638	  203.00	  251.24	-2078.87	  190.38
     22.7972	  231.00	  251.24	-2078.87	  190.38
     22.8306	  245.00	  251.23	-2078.87	  190.37
     22.8640	  257.00	  251.23	-2078.87	  190.37
     22.8974	  257.00	  251.22	-2078.87	  190.36
     22.9309	  242.00	  251.22	-2078.87	  190.36
     22.9643	  251.00	  251.21	-2078.87	  190.35
     22.9977	  226.00	  251.21	-2078.87	  190.35
     23.0311	  220.00	  251.20	-2078.87	  190.34
     23.0646	  243.00	  251.20	-2078.87	  190.34
     23.0980	  234.00	  251.19	-2078.87	  190.33
     23.1314	  250.00	  251.19	-2078.87	  190.33
     23.1648	  220.00	  251.18	-2078.87	  190.32
     23.1983	  260.00	  251.18	-2078.87	  190.32
     23.2317	  256.00	  251.17	-2078.87	  190.31
     23.2651	  256.00	  251.17	-2078.87	  190.31
     23.2985	  236.00	  251.16	-2078.87	  190.30
     23.3319	  233.00	  251.16	-2078.87	  190.30
     23.3654	  224.00	  251.15	-2078.87	  190.29
     23.3988	  259.00	  251.15	-2078.87	  190.29
     23.4322	  225.00	  251.14	-2078.87	  190.28
     23.4656	  232.00	  251.14	-2078.87	  190.28
     23.4991	  226.00	  251.13	-2078.87	  190.27
     23.5325	  238.00	  251.13	-2078.87	  190.27
     23.5659	  208.00	  251.12	-2078.87	  190.26
     23.5993	  211.00	  251.12	-2078.87	  190.26
     23.6327	  247.00	  251.11	-2078.87	  190.25
     23.6662	  248.00	  251.11	-2078.87	  190.25
     23.6996	  229.00	  251.10	-2078.87	  190.24
     23.7330	  217.00	  251.10	-2078.87	  190.24
     23.7664	  243.00	  251.09	-2078.87	  190.23
     23.7999	  242.00	  251.09	-2078.87	  190.23
     23.8333	  244.00	  251.08	-2078.87	  190.22
     23.8667	  227.00	  251.08	-2078.87	  190.22
     23.9001	  266.00	  251.07	-2078.87	  190.21
     23.9335	  236.00	  251.07	-2078.87	  190.21
     23.9670	  237.00	  251.06	-2078.87	  190.20
     24.0004	  255.00	  251.06	-2078.87	  190.20
     24.0338	  257.00	  251.05	-2078.87	  190.19
     24.0672	  232.00	  251.05	-2078.87	  190.19
     24.1007	  227.00	  251.04	-2078.87	  190.18
     24.1341	  199.00	  251.04	-2078.87	  190.18
     24.1675	  233.00	  251.03	-2078.87	  190.17
     24.2009	  225.00	  251.03	-2078.87	  190.17
     24.2344	  229.00	  251.02	-2078.87	  190.16
     24.2678	  260.00	  251.02	-2078.87	  190.16
     24.3012	  247.00	  251.01	-2078.87	  190.15
     24.3346	  217.00	  251.01	-2078.87	  190.15
     24.3680	  226.00	  251.00	-2078.87	  190.14
     24.4015	  244.00	  251.00	-2078.87	  190.14
     24.4349	  198.00	  250.99	-2078.87	  190.13
     24.4683	  260.00	  250.99	-2078.87	  190.13
     24.5017	  263.00	  250.98	-2078.87	  190.12
     24.5352	  227.00	  250.98	-2078.87	  190.12
     24.5686	  232.00	  250.97	-2078.87	  190.11
     24.6020	  239.00	  250.97	-2078.87	  190.11
     24.6354	  266.00	  250.96	-2078.87	  190.10
     24.6688	  217.00	  250.96	-2078.87	  190.10
     24.7023	  231.00	  250.95	-2078.87	  190.09
     24.7357	  274.00	  250.95	-2078.87	  190.09
     24.7691	  234.00	  250.94	-2078.87	  190.08
     24.8025	  246.00	  250.94	-2078.87	  190.08
     24.8360	  249.00	  250.93	-2078.87	  190.07
     24.8694	  246.00	  250.93	-2078.87	  190.07
     24.9028	  234.00	  250.92	-2078.87	  190.06
     24.9362	  221.00	  250.92	-2078.87	  190.06
     24.9696	  223.00	  250.91	-2078.87	  190.05
     25.0031	  251.00	  250.91	-2078.87	  190.05
     25.0365	  263.00	  250.90	-2078.87	  190.04
     25.0699	  213.00	  250.90	-2078.87	  190.04
     25.1033	  220.00	  250.89	-2078.87	  190.03
     25.1368	  251.00	  250.89	-2078.87	  190.03
     25.1702	  236.00	  250.88	-2078.87	  190.02
     25.2036	  248.00	  250.88	-2078.87	  190.02
     25.2370	  209.00	  250.87	-2078.87	  190.01
     25.2705	  211.00	  250.87	-2078.87	  190.01
     25.3039	  209.00	  250.86	-2078.87	  190.00
     25.3373	  242.00	  250.86	-2078.87	  190.00
     25.3707	  258.00	  250.85	-2078.87	  189.99
     25.4041	  242.00	  250.84	-2078.87	  189.99
     25.4376	  248.00	  250.84	-2078.87	  189.98
     25.4710	  236.00	  250.83	-2078.87	  189.98
     25.5044	  244.00	  250.83	-2078.87	  189.97
     25.5378	  270.00	  250.82	-2078.87	  189.97
     25.5713	  246.00	  250.82	-2078.87	  189.96
     25.6047	  244.00	  250.81	-2078.87	  189.96
     25.6381	  233.00	  250.81	-2078.87	  189.95
     25.6715	  245.00	  250.80	-2078.87	  189.95
     25.7049	  219.00	  250.80	-2078.87	  189.94
     25.7384	  269.00	  250.79	-2078.87	  189.93
     25.7718	  231.00	  250.79	-2078.87	  189.93
     25.8052	  216.00	  250.78	-2078.87	  189.92
     25.8386	  226.00	  250.78	-2078.87	  189.92
     25.8721	  243.00	  250.77	-2078.87	  189.91
     25.9055	  261.00	  250.77	-2078.87	  189.91
     25.9389	  226.00	  250.76	-2078.87	  189.90
     25.9723	  247.00	  250.76	-2078.87	  189.90
     26.0057	  244.00	  250.75	-2078.87	  189.89
     26.0392	  239.00	  250.75	-2078.87	  189.89
     26.0726	  234.00	  250.74	-2078.87	  189.88
     26.1060	  263.00	  250.74	-2078.87	  189.88
     26.1394	  240.00	  250.73	-2078.87	  189.87
     26.1729	  226.00	  250.73	-2078.87	  189.87
     26.2063	  250.00	  250.72	-2078.87	  189.86
     26.2397	  262.00	  250.72	-2078.87	  189.86
     26.2731	  252.00	  250.71	-2078.87	  189.85
     26.3065	  232.00	  250.71	-2078.87	  189.85
     26.3400	  238.00	  250.70	-2078.87	  189.84
     26.3734	  250.00	  250.70	-2078.87	  189.84
     26.4068	  240.00	  250.69	-2078.87	  189.83
     26.4402	  244.00	  250.68	-2078.87	  189.83
     26.4737	  229.00	  250.68	-2078.87	  189.82
     26.5071	  223.00	  250.67	-2078.87	  189.82
     26.5405	  234.00	  250.67	-2078.87	  189.81
     26.5739	  238.00	  250.66	-2078.87	  189.81
     26.6074	  265.00	  250.66	-2078.87	  189.80
     26.6408	  252.00	  250.65	-2078.87	  189.80
     26.6742	  247.00	  250.65	-2078.87	  189.79
     26.7076	  249.00	  250.64	-2078.87	  189.78
     26.7410	  222.00	  250.64	-2078.87	  189.78
     26.7745	  258.00	  250.63	-2078.87	  189.77
     26.8079	  224.00	  250.63	-2078.87	  189.77
     26.8413	  250.00	  250.62	-2078.87	  189.76
     26.8747	  245.00	  250.62	-2078.87	  189.76
     26.9082	  238.00	  250.61	-2078.87	  189.75
     26.9416	  257.00	  250.61	-2078.87	  189.75
     26.9750	  219.00	  250.60	-2078.87	  189.74
     27.0084	  226.00	  250.60	-2078.87	  189.74
     27.0418	  215.00	  250.59	-2078.87	  189.73
     27.0753	  206.00	  250.59	-2078.87	  189.73
     27.1087	  220.00	  250.58	-2078.87	  189.72
     27.1421	  240.00	  250.58	-2078.87	  189.72
     27.1755	  232.00	  250.57	-2078.87	  189.71
     27.2090	  211.00	  250.57	-2078.87	  189.71
     27.2424	  223.00	  250.56	-2078.87	  189.70
     27.2758	  252.00	  250.55	-2078.87	  189.70
     27.3092	  246.00	  250.55	-2078.87	  189.69
     27.3426	  255.00	  250.54	-2078.87	  189.69
     27.3761	  248.00	  250.54	-2078.87	  189.68
     27.4095	  259.00	  250.53	-2078.87	  189.67
     27.4429	  231.00	  250.53	-2078.87	  189.67
     27.4763	  234.00	  250.52	-2078.87	  189.66
     27.5098	  219.00	  250.52	-2078.87	  189.66
     27.5432	  249.00	  250.51	-2078.87	  189.65
     27.5766	  234.00	  250.51	-2078.87	  189.65
     27.6100	  255.00	  250.50	-2078.87	  189.64
     27.6434	  258.00	  250.50	-2078.87	  189.64
     27.6769	  238.00	  250.49	-2078.87	  189.63
     27.7103	  252.00	  250.49	-2078.87	  189.63
     27.7437	  224.00	  250.48	-2078.87	  189.62
     27.7771	  242.00	  250.48	-2078.87	  189.62
     27.8106	  253.00	  250.47	-2078.87	  189.61
     27.8440	  230.00	  250.47	-2078.87	  189.61
     27.8774	  256.00	  250.46	-2078.87	  189.60
     27.9108	  231.00	  250.45	-2078.87	  189.60
     27.9443	  259.00	  250.45	-2078.87	  189.59
     27.9777	  243.00	  250.44	-2078.87	  189.59
     28.0111	  250.00	  250.44	-2078.87	  189.58
     28.0445	  231.00	  250.43	-2078.87	  189.57
     28.0779	  219.00	  250.43	-2078.87	  189.57
     28.1114	  230.00	  250.42	-2078.87	  189.56
     28.1448	  224.00	  250.42	-2078.87	  189.56
     28.1782	  235.00	  250.41	-2078.87	  189.55
     28.2116	  224.00	  250.41	-2078.87	  189.55
     28.2451	  257.00	  250.40	-2078.87	  189.54
     28.2785	  238.00	  250.40	-2078.87	  189.54
     28.3119	  250.00	  250.39	-2078.87	  189.53
     28.3453	  234.00	  250.39	-2078.87	  189.53
     28.3787	  257.00	  250.38	-2078.87	  189.52
     28.4122	  231.00	  250.38	-2078.87	  189.52
     28.4456	  210.00	  250.37	-2078.87	  189.51
     28.4790	  248.00	  250.36	-2078.87	  189.51
     28.5124	  229.00	  250.36	-2078.87	  189.50
     28.5459	  220.00	  250.35	-2078.87	  189.50
     28.5793	  240.00	  250.35	-2078.87	  189.49
     28.6127	  276.00	  250.34	-2078.87	  189.48
     28.6461	  226.00	  250.34	-2078.87	  189.48
     28.6795	  226.00	  250.33	-2078.87	  189.47
     28.7130	  236.00	  250.33	-2078.87	  189.47
     28.7464	  258.00	  250.32	-2078.87	  189.46
     28.7798	  253.00	  250.32	-2078.87	  189.46
     28.8132	  247.00	  250.31	-2078.87	  189.45
     28.8467	  242.00	  250.31	-2078.87	  189.45
     28.8801	  245.00	  250.30	-2078.87	  189.44
     28.9135	  220.00	  250.30	-2078.87	  189.44
     28.9469	  219.00	  250.29	-2078.87	  189.43
     28.9804	  263.00	  250.29	-2078.87	  189.43
     29.0138	  234.00	  250.28	-2078.87	  189.42
     29.0472	  272.00	  250.27	-2078.87	  189.42
     29.0806	  213.00	  250.27	-2078.87	  189.41
     29.1140	  222.00	  250.26	-2078.87	  189.41
     29.1475	  223.00	  250.26	-2078.87	  189.40
     29.1809	  276.00	  250.25	-2078.87	  189.39
     29.2143	  275.00	  250.25	-2078.87	  189.39
     29.2477	  265.00	  250.24	-2078.87	  189.38
     29.2812	  227.00	  250.24	-2078.87	  189.38
     29.3146	  210.00	  250.23	-2078.87	  189.37
     29.3480	  260.00	  250.23	-2078.87	  189.37
     29.3814	  250.00	  250.22	-2078.87	  189.36
     29.4148	  246.00	  250.22	-2078.87	  189.36
     29.4483	  239.00	  250.21	-2078.87	  189.35
     29.4817	  247.00	  250.21	-2078.87	  189.35
     29.5151	  226.00	  250.20	-2078.87	  189.34
     29.5485	  253.00	  250.19	-2078.87	  189.34
     29.5820	  230.00	  250.19	-2078.87	  189.33
     29.6154	  239.00	  250.18	-2078.87	  189.33
     29.6488	  223.00	  250.18	-2078.87	  189.32
     29.6822	  260.00	  250.17	-2078.87	  189.31
     29.7156	  259.00	  250.17	-2078.87	  189.31
     29.7491	  242.00	  250.16	-2078.87	  189.30
     29.7825	  227.00	  250.16	-2078.87	  189.30
     29.8159	  264.00	  250.15	-2078.87	  189.29
     29.8493	  208.00	  250.15	-2078.87	  189.29
     29.8828	  231.00	  250.14	-2078.87	  189.28
     29.9162	  235.00	  250.14	-2078.87	  189.28
     29.9496	  239.00	  250.13	-2078.87	  189.27
     29.9830	  260.00	  250.12	-2078.87	  189.27
     30.0164	  249.00	  250.12	-2079.99	  189.26
     30.0499	  264.00	  253.49	-2068.35	  189.26
     30.0833	  232.00	  253.61	-2100.48	  189.25
     30.1167	  243.00	  253.75	-2089.61	  189.24
     30.1501	  256.00	  253.89	-2076.76	  189.24
     30.1836	  229.00	  254.04	-2103.91	  189.23
     30.2170	  238.00	  254.20	-2095.07	  189.23
     30.2504	  264.00	  254.37	-2069.24	  189.22
     30.2838	  259.00	  254.56	-2074.42	  189.22
     30.3173	  269.00	  254.75	-2064.62	  189.21
     30.3507	  234.00	  254.96	-2099.83	  189.21
     30.3841	  250.00	  255.19	-2084.06	  189.20
     30.4175	  256.00	  255.43	-2078.30	  189.20
     30.4509	  260.00	  255.69	-2074.56	  189.19
     30.4844	  237.00	  255.97	-2097.84	  189.19
     30.5178	  242.00	  256.28	-2093.14	  189.18
     30.5512	  247.00	  256.60	-2088.47	  189.17
     30.5846	  256.00	  256.96	-2079.83	  189.17
     30.6181	  225.00	  257.34	-2111.21	  189.16
     30.6515	  298.00	  257.76	-2038.63	  189.16
     30.6849	  278.00	  258.22	-2059.09	  189.15
     30.7183	  297.00	  258.72	-2040.59	  189.15
     30.7517	  343.00	  259.27	-1995.14	  189.14
     30.7852	  273.00	  259.88	-2065.74	  189.14
     30.8186	  264.00	  260.54	-2075.41	  189.13
     30.8520	  262.00	  261.28	-2078.14	  189.13
     30.8854	  264.00	  262.09	-2076.96	  189.12
     30.9189	  264.00	  263.01	-2077.87	  189.12
     30.9523	  264.00	  264.02	-2078.89	  189.11
     30.9857	  266.00	  265.67	-2078.53	  189.10
     31.0191	  264.00	  266.97	-2081.84	  189.10
     31.0525	  280.00	  268.44	-2067.31	  189.09
     31.0860	  310.00	  270.37	-2039.24	  189.09
     31.1194	  286.00	  272.30	-2065.17	  189.08
     31.1528	  300.00	  274.53	-2053.40	  189.08
     31.1862	  271.00	  277.12	-2084.98	  189.07
     31.2197	  312.00	  280.14	-2047.01	  189.07
     31.2531	  284.00	  283.72	-2078.59	  189.06
     31.2865	  327.00	  287.98	-2039.85	  189.06
     31.3199	  304.00	  293.13	-2067.99	  189.05
     31.3534	  274.00	  299.41	-2104.28	  189.04
     31.3868	  328.00	  307.18	-2058.05	  189.04
     31.4202	  319.00	  316.97	-2076.84	  189.03
     31.4536	  336.00	  329.52	-2072.39	  189.03
     31.4870	  380.00	  345.97	-2044.84	  189.02
     31.5205	  409.00	  368.14	-2038.01	  189.02
     31.5539	  430.00	  399.35	-2048.21	  189.01
     31.5873	  532.00	  447.60	-1994.47	  189.01
     31.6207	  654.00	  537.12	-1961.98	  189.00
     31.6542	  861.00	  734.99	-1952.86	  189.00
     31.6876	 1239.00	 1172.63	-2012.50	  188.99
     31.7210	 2085.00	 1986.34	-1980.21	  188.99
     31.7544	 3426.00	 3119.84	-1772.70	  188.98
     31.7878	 4752.00	 4043.36	-1370.23	  188.97
     31.8213	 4701.00	 4088.23	-1466.10	  188.97
     31.8547	 4050.00	 3546.86	-1575.73	  188.96
     31.8881	 3103.00	 2728.66	-1704.53	  188.96
     31.9215	 2068.00	 1821.23	-1832.09	  188.95
     31.9550	 1276.00	 1136.54	-1939.41	  188.95
     31.9884	  785.00	  736.03	-2029.90	  188.94
     32.0218	  553.00	  537.69	-2063.56	  188.94
     32.0552	  465.00	  444.48	-2058.35	  188.93
     32.0886	  444.00	  395.68	-2030.54	  188.93
     32.1221	  338.00	  365.20	-2106.07	  188.92
     32.1555	  330.00	  343.84	-2092.70	  188.91
     32.1889	  337.00	  328.03	-2069.90	  188.91
     32.2223	  297.00	  315.97	-2097.84	  188.90
     32.2558	  299.00	  306.58	-2086.44	  188.90
     32.2892	  302.00	  299.11	-2075.98	  188.89
     32.3226	  305.00	  293.09	-2066.96	  188.89
     32.3560	  300.00	  288.17	-2067.03	  188.88
     32.3895	  292.00	  284.09	-2070.96	  188.88
     32.4229	  266.00	  280.69	-2093.55	  188.87
     32.4563	  283.00	  277.81	-2073.68	  188.87
     32.4897	  265.00	  275.37	-2089.24	  188.86
     32.5231	  291.00	  273.28	-2061.15	  188.85
     32.5566	  279.00	  271.48	-2071.35	  188.85
     32.5900	  288.00	  269.93	-2060.79	  188.84
     32.6234	  283.00	  268.58	-2064.44	  188.84
     32.6568	  286.00	  267.40	-2060.26	  188.83
     32.6903	  235.00	  266.37	-2110.23	  188.83
     32.7237	  251.00	  265.47	-2093.33	  188.82
     32.7571	  245.00	  264.68	-2098.54	  188.82
     32.7905	  266.00	  263.98	-2076.85	  188.81
     32.8239	  267.00	  264.69	-2076.56	  188.81
     32.8574	  260.00	  264.19	-2083.06	  188.80
     32.8908	  259.00	  264.40	-2084.27	  188.79
     32.9242	  237.00	  264.05	-2105.91	  188.79
     32.9576	  275.00	  263.75	-2067.62	  188.78
     32.9911	  238.00	  263.51	-2104.38	  188.78
     33.0245	  264.00	  263.32	-2078.18	  188.77
     33.0579	  265.00	  263.17	-2077.04	  188.77
     33.0913	  242.00	  263.08	-2099.94	  188.76
     33.1247	  271.00	  263.03	-2070.89	  188.76
     33.1582	  279.00	  263.02	-2062.89	  188.75
     33.1916	  278.00	  263.05	-2063.92	  188.75
     33.2250	  289.00	  263.13	-2053.00	  188.74
     33.2584	  296.00	  263.26	-2046.12	  188.73
     33.2919	  261.00	  263.43	-2081.29	  188.73
     33.3253	  284.00	  263.64	-2058.51	  188.72
     33.3587	  310.00	  263.91	-2032.78	  188.72
     33.3921	  287.00	  264.23	-2056.10	  188.71
