ZnO hexagonal   Chi2:  1.9928  CELL:    3.24991   3.24991   5.20644   90.0000   90.0000  120.0000   SPGR: P 63 m c               TEMP:      0.00
  1   3291     1.54060     1.54439     0.00000    -0.05476     0.00000    0
    58     0     1
       0.00000      30.00000
 2Theta	Yobs	Ycal	Yobs-Ycal	Backg	Posr	(hkl)	K
     20.0231	  139.00	  141.91	 -601.00	  132.94
     20.0565	  122.00	  141.80	 -601.00	  132.83
     20.0900	  138.00	  141.69	 -601.00	  132.72
     20.1234	  164.00	  141.58	 -601.00	  132.60
     20.1568	  115.00	  141.47	 -601.00	  132.49
     20.1902	  132.00	  141.36	 -601.00	  132.38
     20.2236	  152.00	  141.25	 -601.00	  132.27
     20.2571	  123.00	  141.14	 -601.00	  132.16
     20.2905	  121.00	  141.02	 -601.00	  132.05
     20.3239	  139.00	  140.91	 -601.00	  131.94
     20.3573	  127.00	  140.80	 -601.00	  131.83
     20.3908	  143.00	  140.69	 -601.00	  131.72
     20.4242	  146.00	  140.58	 -601.00	  131.61
     20.4576	  141.00	  140.47	 -601.00	  131.50
     20.4910	  102.00	  140.36	 -601.00	  131.39
     20.5245	  139.00	  140.25	 -601.00	  131.28
     20.5579	  126.00	  140.14	 -601.00	  131.17
     20.5913	  114.00	  140.03	 -601.00	  131.06
     20.6247	  145.00	  139.92	 -601.00	  130.95
     20.6581	  145.00	  139.81	 -601.00	  130.84
     20.6916	  126.00	  139.70	 -601.00	  130.73
     20.7250	  133.00	  139.59	 -601.00	  130.62
     20.7584	  127.00	  139.48	 -601.00	  130.51
     20.7918	  113.00	  139.37	 -601.00	  130.40
     20.8253	  136.00	  139.26	 -601.00	  130.29
     20.8587	  112.00	  139.15	 -601.00	  130.18
     20.8921	  145.00	  139.04	 -601.00	  130.07
     20.9255	  124.00	  138.94	 -601.00	  129.96
     20.9589	  128.00	  138.83	 -601.00	  129.85
     20.9924	  116.00	  138.72	 -601.00	  129.74
     21.0258	  126.00	  138.61	 -601.00	  129.63
     21.0592	  150.00	  138.50	 -601.00	  129.52
     21.0926	  124.00	  138.39	 -601.00	  129.42
     21.1261	  141.00	  138.28	 -601.00	  129.31
     21.1595	  118.00	  138.17	 -601.00	  129.20
     21.1929	  129.00	  138.06	 -601.00	  129.09
     21.2263	  123.00	  137.96	 -601.00	  128.98
     21.2597	  110.00	  137.85	 -601.00	  128.87
     21.2932	  129.00	  137.74	 -601.00	  128.76
     21.3266	  155.00	  137.63	 -601.00	  128.66
     21.3600	  137.00	  137.52	 -601.00	  128.55
     21.3934	  137.00	  137.42	 -601.00	  128.44
     21.4269	  145.00	  137.31	 -601.00	  128.33
     21.4603	  126.00	  137.20	 -601.00	  128.22
     21.4937	  139.00	  137.09	 -601.00	  128.12
     21.5271	  135.00	  136.98	 -601.00	  128.01
     21.5605	  129.00	  136.88	 -601.00	  127.90
     21.5940	  125.00	  136.77	 -601.00	  127.79
     21.6274	  121.00	  136.66	 -601.00	  127.69
     21.6608	  118.00	  136.55	 -601.00	  127.58
     21.6942	  141.00	  136.45	 -601.00	  127.47
     21.7277	  119.00	  136.34	 -601.00	  127.36
     21.7611	  119.00	  136.23	 -601.00	  127.26
     21.7945	  156.00	  136.13	 -601.00	  127.15
     21.8279	  117.00	  136.02	 -601.00	  127.04
     21.8614	  130.00	  135.91	 -601.00	  126.94
     21.8948	  110.00	  135.81	 -601.00	  126.83
     21.9282	  138.00	  135.70	 -601.00	  126.72
     21.9616	  130.00	  135.59	 -601.00	  126.62
     21.9950	  123.00	  135.49	 -601.00	  126.51
     22.0285	  122.00	  135.38	 -601.00	  126.40
     22.0619	  148.00	  135.27	 -601.00	  126.30
     22.0953	  139.00	  135.17	 -601.00	  126.19
     22.1287	  124.00	  135.06	 -601.00	  126.09
     22.1622	  122.00	  134.95	 -601.00	  125.98
     22.1956	  127.00	  134.85	 -601.00	  125.87
     22.2290	  131.00	  134.74	 -601.00	  125.77
     22.2624	  135.00	  134.64	 -601.00	  125.66
     22.2958	  116.00	  134.53	 -601.00	  125.56
     22.3293	  124.00	  134.43	 -601.00	  125.45
     22.3627	  128.00	  134.32	 -601.00	  125.34
     22.3961	  135.00	  134.21	 -601.00	  125.24
     22.4295	  133.00	  134.11	 -601.00	  125.13
     22.4630	  141.00	  134.00	 -601.00	  125.03
     22.4964	  124.00	  133.90	 -601.00	  124.92
     22.5298	  117.00	  133.79	 -601.00	  124.82
     22.5632	  137.00	  133.69	 -601.00	  124.71
     22.5966	  121.00	  133.58	 -601.00	  124.61
     22.6301	  103.00	  133.48	 -601.00	  124.50
     22.6635	  130.00	  133.37	 -601.00	  124.40
     22.6969	  127.00	  133.27	 -601.00	  124.29
     22.7303	  125.00	  133.16	 -601.00	  124.19
     22.7638	  132.00	  133.06	 -601.00	  124.08
     22.7972	  116.00	  132.96	 -601.00	  123.98
     22.8306	  138.00	  132.85	 -601.00	  123.88
     22.8640	  125.00	  132.75	 -601.00	  123.77
     22.8974	  124.00	  132.64	 -601.00	  123.67
     22.9309	  116.00	  132.54	 -601.00	  123.56
     22.9643	  140.00	  132.43	 -601.00	  123.46
     22.9977	  126.00	  132.33	 -601.00	  123.36
     23.0311	  103.00	  132.23	 -601.00	  123.25
     23.0646	  118.00	  132.12	 -601.00	  123.15
     23.0980	  111.00	  132.02	 -601.00	  123.04
     23.1314	  122.00	  131.92	 -601.00	  122.94
     23.1648	  126.00	  131.81	 -601.00	  122.84
     23.1983	  131.00	  131.71	 -601.00	  122.73
     23.2317	  119.00	  131.60	 -601.00	  122.63
     23.2651	  130.00	  131.50	 -601.00	  122.53
     23.2985	  132.00	  131.40	 -601.00	  122.42
     23.3319	  125.00	  131.30	 -601.00	  122.32
     23.3654	  105.00	  131.19	 -601.00	  122.22
     23.3988	  113.00	  131.09	 -601.00	  122.11
     23.4322	  114.00	  130.99	 -601.00	  122.01
     23.4656	  106.00	  130.88	 -601.00	  121.91
     23.4991	  115.00	  130.78	 -601.00	  121.81
     23.5325	  114.00	  130.68	 -601.00	  121.70
     23.5659	  138.00	  130.58	 -601.00	  121.60
     23.5993	  113.00	  130.47	 -601.00	  121.50
     23.6327	  113.00	  130.37	 -601.00	  121.40
     23.6662	  112.00	  130.27	 -601.00	  121.29
     23.6996	  118.00	  130.17	 -601.00	  121.19
     23.7330	  141.00	  130.06	 -601.00	  121.09
     23.7664	  139.00	  129.96	 -601.00	  120.99
     23.7999	  116.00	  129.86	 -601.00	  120.89
     23.8333	  140.00	  129.76	 -601.00	  120.78
     23.8667	  133.00	  129.66	 -601.00	  120.68
     23.9001	  105.00	  129.55	 -601.00	  120.58
     23.9335	  115.00	  129.45	 -601.00	  120.48
     23.9670	  111.00	  129.35	 -601.00	  120.38
     24.0004	  108.00	  129.25	 -601.00	  120.28
     24.0338	  135.00	  129.15	 -601.00	  120.17
     24.0672	  135.00	  129.05	 -601.00	  120.07
     24.1007	  129.00	  128.95	 -601.00	  119.97
     24.1341	   99.00	  128.85	 -601.00	  119.87
     24.1675	  130.00	  128.74	 -601.00	  119.77
     24.2009	  112.00	  128.64	 -601.00	  119.67
     24.2344	  129.00	  128.54	 -601.00	  119.57
     24.2678	  116.00	  128.44	 -601.00	  119.47
     24.3012	  126.00	  128.34	 -601.00	  119.37
     24.3346	  127.00	  128.24	 -601.00	  119.27
     24.3680	  111.00	  128.14	 -601.00	  119.16
     24.4015	  127.00	  128.04	 -601.00	  119.06
     24.4349	  121.00	  127.94	 -601.00	  118.96
     24.4683	  110.00	  127.84	 -601.00	  118.86
     24.5017	  114.00	  127.74	 -601.00	  118.76
     24.5352	  117.00	  127.64	 -601.00	  118.66
     24.5686	  119.00	  127.54	 -601.00	  118.56
     24.6020	  116.00	  127.44	 -601.00	  118.46
     24.6354	  102.00	  127.34	 -601.00	  118.36
     24.6688	  131.00	  127.24	 -601.00	  118.26
     24.7023	  139.00	  127.14	 -601.00	  118.16
     24.7357	  125.00	  127.04	 -601.00	  118.06
     24.7691	  140.00	  126.94	 -601.00	  117.96
     24.8025	  114.00	  126.84	 -601.00	  117.86
     24.8360	  125.00	  126.74	 -601.00	  117.77
     24.8694	  115.00	  126.64	 -601.00	  117.67
     24.9028	  115.00	  126.54	 -601.00	  117.57
     24.9362	  124.00	  126.44	 -601.00	  117.47
     24.9696	  141.00	  126.34	 -601.00	  117.37
     25.0031	  104.00	  126.24	 -601.00	  117.27
     25.0365	  139.00	  126.15	 -601.00	  117.17
     25.0699	  113.00	  126.05	 -601.00	  117.07
     25.1033	  112.00	  125.95	 -601.00	  116.97
     25.1368	  128.00	  125.85	 -601.00	  116.87
     25.1702	  119.00	  125.75	 -601.00	  116.78
     25.2036	  111.00	  125.65	 -601.00	  116.68
     25.2370	  123.00	  125.55	 -601.00	  116.58
     25.2705	  117.00	  125.46	 -601.00	  116.48
     25.3039	  111.00	  125.36	 -601.00	  116.38
     25.3373	  135.00	  125.26	 -601.00	  116.28
     25.3707	  123.00	  125.16	 -601.00	  116.19
     25.4041	  115.00	  125.06	 -601.00	  116.09
     25.4376	  115.00	  124.97	 -601.00	  115.99
     25.4710	  105.00	  124.87	 -601.00	  115.89
     25.5044	  123.00	  124.77	 -601.00	  115.79
     25.5378	  106.00	  124.67	 -601.00	  115.70
     25.5713	  142.00	  124.57	 -601.00	  115.60
     25.6047	  106.00	  124.48	 -601.00	  115.50
     25.6381	  106.00	  124.38	 -601.00	  115.40
     25.6715	  101.00	  124.28	 -601.00	  115.31
     25.7049	  126.00	  124.18	 -601.00	  115.21
     25.7384	  117.00	  124.09	 -601.00	  115.11
     25.7718	  130.00	  123.99	 -601.00	  115.01
     25.8052	  117.00	  123.89	 -601.00	  114.92
     25.8386	  108.00	  123.80	 -601.00	  114.82
     25.8721	  108.00	  123.70	 -601.00	  114.72
     25.9055	  111.00	  123.60	 -601.00	  114.63
     25.9389	  110.00	  123.51	 -601.00	  114.53
     25.9723	   89.00	  123.41	 -601.00	  114.43
     26.0057	  110.00	  123.31	 -601.00	  114.34
     26.0392	  113.00	  123.22	 -601.00	  114.24
     26.0726	  116.00	  123.12	 -601.00	  114.14
     26.1060	  117.00	  123.02	 -601.00	  114.05
     26.1394	  113.00	  122.93	 -601.00	  113.95
     26.1729	  125.00	  122.83	 -601.00	  113.86
     26.2063	  125.00	  122.73	 -601.00	  113.76
     26.2397	  123.00	  122.64	 -601.00	  113.66
     26.2731	  112.00	  122.54	 -601.00	  113.57
     26.3065	  103.00	  122.45	 -601.00	  113.47
     26.3400	   95.00	  122.35	 -601.00	  113.38
     26.3734	  119.00	  122.26	 -601.00	  113.28
     26.4068	  139.00	  122.16	 -601.00	  113.18
     26.4402	  122.00	  122.06	 -601.00	  113.09
     26.4737	  116.00	  121.97	 -601.00	  112.99
     26.5071	  105.00	  121.87	 -601.00	  112.90
     26.5405	  112.00	  121.78	 -601.00	  112.80
     26.5739	   84.00	  121.68	 -601.00	  112.71
     26.6074	  116.00	  121.59	 -601.00	  112.61
     26.6408	  114.00	  121.49	 -601.00	  112.52
     26.6742	  108.00	  121.40	 -601.00	  112.42
     26.7076	  131.00	  121.30	 -601.00	  112.33
     26.7410	  108.00	  121.21	 -601.00	  112.23
     26.7745	   97.00	  121.11	 -601.00	  112.14
     26.8079	   98.00	  121.02	 -601.00	  112.04
     26.8413	  115.00	  120.92	 -601.00	  111.95
     26.8747	  132.00	  120.83	 -601.00	  111.85
     26.9082	  114.00	  120.74	 -601.00	  111.76
     26.9416	  112.00	  120.64	 -601.00	  111.67
     26.9750	  101.00	  120.55	 -601.00	  111.57
     27.0084	  123.00	  120.45	 -601.00	  111.48
     27.0418	  126.00	  120.36	 -601.00	  111.38
     27.0753	  123.00	  120.26	 -601.00	  111.29
     27.1087	  121.00	  120.17	 -601.00	  111.20
     27.1421	  113.00	  120.08	 -601.00	  111.10
     27.1755	  101.00	  119.98	 -601.00	  111.01
     27.2090	  130.00	  119.89	 -601.00	  110.91
     27.2424	  105.00	  119.80	 -601.00	  110.82
     27.2758	  105.00	  119.70	 -601.00	  110.73
     27.3092	  121.00	  119.61	 -601.00	  110.63
     27.3426	  118.00	  119.52	 -601.00	  110.54
     27.3761	  115.00	  119.42	 -601.00	  110.45
     27.4095	  115.00	  119.33	 -601.00	  110.35
     27.4429	  127.00	  119.24	 -601.00	  110.26
     27.4763	  112.00	  119.14	 -601.00	  110.17
     27.5098	   91.00	  119.05	 -601.00	  110.07
     27.5432	   98.00	  118.96	 -601.00	  109.98
     27.5766	  104.00	  118.86	 -601.00	  109.89
     27.6100	  142.00	  118.77	 -601.00	  109.80
     27.6434	   90.00	  118.68	 -601.00	  109.70
     27.6769	   96.00	  118.59	 -601.00	  109.61
     27.7103	  127.00	  118.49	 -601.00	  109.52
     27.7437	  108.00	  118.40	 -601.00	  109.43
     27.7771	   98.00	  118.31	 -601.00	  109.33
     27.8106	  116.00	  118.22	 -601.00	  109.24
     27.8440	  117.00	  118.12	 -601.00	  109.15
     27.8774	  106.00	  118.03	 -601.00	  109.06
     27.9108	  126.00	  117.94	 -601.00	  108.96
     27.9443	  101.00	  117.85	 -601.00	  108.87
     27.9777	  112.00	  117.76	 -601.00	  108.78
     28.0111	  115.00	  117.66	 -601.00	  108.69
     28.0445	  115.00	  117.57	 -601.00	  108.60
     28.0779	   98.00	  117.48	 -601.00	  108.51
     28.1114	  101.00	  117.39	 -601.00	  108.41
     28.1448	  112.00	  117.30	 -601.00	  108.32
     28.1782	   94.00	  117.21	 -601.00	  108.23
     28.2116	  104.00	  117.11	 -601.00	  108.14
     28.2451	  103.00	  117.02	 -601.00	  108.05
     28.2785	  116.00	  116.93	 -601.00	  107.96
     28.3119	   97.00	  116.84	 -601.00	  107.87
     28.3453	  108.00	  116.75	 -601.00	  107.78
     28.3787	  109.00	  116.66	 -601.00	  107.68
     28.4122	  119.00	  116.57	 -601.00	  107.59
     28.4456	  114.00	  116.48	 -601.00	  107.50
     28.4790	  131.00	  116.39	 -601.00	  107.41
     28.5124	  108.00	  116.30	 -601.00	  107.32
     28.5459	  104.00	  116.21	 -601.00	  107.23
     28.5793	  104.00	  116.12	 -601.00	  107.14
     28.6127	  109.00	  116.02	 -601.00	  107.05
     28.6461	  111.00	  115.93	 -601.00	  106.96
     28.6795	   96.00	  115.84	 -601.00	  106.87
     28.7130	  102.00	  115.75	 -601.00	  106.78
     28.7464	   88.00	  115.66	 -601.00	  106.69
     28.7798	  113.00	  115.57	 -601.00	  106.60
     28.8132	   91.00	  115.48	 -601.00	  106.51
     28.8467	   98.00	  115.39	 -601.00	  106.42
     28.8801	  125.00	  115.30	 -601.00	  106.33
     28.9135	  109.00	  115.21	 -601.00	  106.24
     28.9469	  111.00	  115.13	 -601.00	  106.15
     28.9804	   90.00	  115.04	 -601.00	  106.06
     29.0138	  116.00	  114.95	 -601.00	  105.97
     29.0472	  118.00	  114.86	 -601.00	  105.88
     29.0806	  109.00	  114.77	 -601.00	  105.79
     29.1140	   95.00	  114.68	 -601.00	  105.70
     29.1475	  102.00	  114.59	 -601.00	  105.61
     29.1809	  105.00	  114.50	 -601.00	  105.52
     29.2143	   96.00	  114.41	 -601.00	  105.44
     29.2477	   97.00	  114.32	 -601.00	  105.35
     29.2812	   82.00	  114.23	 -601.00	  105.26
     29.3146	  102.00	  114.14	 -601.00	  105.17
     29.3480	  103.00	  114.06	 -601.00	  105.08
     29.3814	  111.00	  113.97	 -601.00	  104.99
     29.4148	  109.00	  113.88	 -601.00	  104.90
     29.4483	  127.00	  113.79	 -601.00	  104.81
     29.4817	  116.00	  113.70	 -601.00	  104.73
     29.5151	  112.00	  113.61	 -601.00	  104.64
     29.5485	  114.00	  113.53	 -601.00	  104.55
     29.5820	   98.00	  113.44	 -601.00	  104.46
     29.6154	   95.00	  113.35	 -601.00	  104.37
     29.6488	   95.00	  113.26	 -601.00	  104.29
     29.6822	  102.00	  113.17	 -601.00	  104.20
     29.7156	  101.00	  113.08	 -601.00	  104.11
     29.7491	  123.00	  113.00	 -601.00	  104.02
     29.7825	  113.00	  112.91	 -601.00	  103.93
     29.8159	  102.00	  112.82	 -601.00	  103.85
     29.8493	  106.00	  112.73	 -601.00	  103.76
     29.8828	  101.00	  112.65	 -601.00	  103.67
     29.9162	  109.00	  112.56	 -601.00	  103.58
     29.9496	   96.00	  112.47	 -601.00	  103.50
     29.9830	   82.00	  112.38	 -601.00	  103.41
     30.0164	  105.00	  112.30	 -608.30	  103.32
     30.0499	  125.00	  115.13	 -591.13	  103.24
     30.0833	  114.00	  115.16	 -602.16	  103.15
     30.1167	   95.00	  115.19	 -621.19	  103.06
     30.1501	  122.00	  115.23	 -594.23	  102.97
     30.1836	   92.00	  115.27	 -624.27	  102.89
     30.2170	  106.00	  115.33	 -610.33	  102.80
     30.2504	  122.00	  115.39	 -594.39	  102.71
     30.2838	   99.00	  115.47	 -617.47	  102.63
     30.3173	  116.00	  115.55	 -600.55	  102.54
     30.3507	  119.00	  115.65	 -597.65	  102.46
     30.3841	  104.00	  115.76	 -612.76	  102.37
     30.4175	  123.00	  115.89	 -593.89	  102.28
     30.4509	  121.00	  116.03	 -596.03	  102.20
     30.4844	  114.00	  116.19	 -603.19	  102.11
     30.5178	   95.00	  116.37	 -622.37	  102.02
     30.5512	  113.00	  116.57	 -604.57	  101.94
     30.5846	  106.00	  116.80	 -611.80	  101.85
     30.6181	  138.00	  117.06	 -580.06	  101.77
     30.6515	  121.00	  117.34	 -597.34	  101.68
     30.6849	  115.00	  117.66	 -603.66	  101.60
     30.7183	  121.00	  118.03	 -598.03	  101.51
     30.7517	  124.00	  118.43	 -595.43	  101.42
     30.7852	  135.00	  118.89	 -584.89	  101.34
     30.8186	  130.00	  119.41	 -590.41	  101.25
     30.8520	  139.00	  120.00	 -582.00	  101.17
     30.8854	  143.00	  120.66	 -578.66	  101.08
     30.9189	  127.00	  121.42	 -595.42	  101.00
     30.9523	  164.00	  122.28	 -559.28	  100.91
     30.9857	  122.00	  123.27	 -602.27	  100.83
     31.0191	  138.00	  124.41	 -587.41	  100.74
     31.0525	  145.00	  125.73	 -581.73	  100.66
     31.0860	  142.00	  127.26	 -586.26	  100.57
     31.1194	  144.00	  129.06	 -586.06	  100.49
     31.1528	  172.00	  131.17	 -560.17	  100.40
     31.1862	  135.00	  133.68	 -599.68	  100.32
     31.2197	  169.00	  136.70	 -568.70	  100.23
     31.2531	  180.00	  140.34	 -561.34	  100.15
     31.2865	  179.00	  144.81	 -566.81	  100.07
     31.3199	  203.00	  150.36	 -548.36	   99.98
     31.3534	  190.00	  157.35	 -568.35	   99.90
     31.3868	  183.00	  166.34	 -584.34	   99.81
     31.4202	  219.00	  178.26	 -560.26	   99.73
     31.4536	  242.00	  194.82	 -553.82	   99.65
     31.4870	  301.00	  219.94	 -519.94	   99.56
     31.5205	  352.00	  259.32	 -508.32	   99.48
     31.5539	  355.00	  324.96	 -570.96	   99.39
     31.5873	  457.00	  431.77	 -575.77	   99.31
     31.6207	  634.00	  594.48	 -561.48	   99.23
     31.6542	  883.00	  813.76	 -531.76	   99.14
     31.6876	 1473.00	 1046.75	 -174.75	   99.06
     31.7210	 1795.00	 1186.84	    7.16	   98.98
     31.7544	 1678.00	 1169.30	  -92.30	   98.89
     31.7878	 1412.00	 1041.91	 -230.91	   98.81
     31.8213	 1005.00	  848.78	 -444.78	   98.73
     31.8547	  733.00	  641.16	 -509.16	   98.64
     31.8881	  480.00	  471.31	 -592.31	   98.56
     31.9215	  367.00	  352.98	 -586.98	   98.48
     31.9550	  300.00	  277.26	 -578.26	   98.40
     31.9884	  298.00	  230.53	 -533.53	   98.31
     32.0218	  232.00	  201.43	 -570.43	   98.23
     32.0552	  222.00	  182.37	 -561.37	   98.15
     32.0886	  206.00	  169.03	 -564.03	   98.07
     32.1221	  176.00	  159.15	 -584.15	   97.98
     32.1555	  197.00	  151.54	 -555.54	   97.90
     32.1889	  157.00	  145.52	 -589.52	   97.82
     32.2223	  162.00	  140.69	 -579.69	   97.74
     32.2558	  128.00	  136.74	 -609.74	   97.65
     32.2892	  158.00	  133.47	 -576.47	   97.57
     32.3226	  136.00	  130.74	 -595.74	   97.49
     32.3560	  130.00	  128.44	 -599.44	   97.41
     32.3895	  139.00	  126.48	 -588.48	   97.33
     32.4229	  116.00	  124.79	 -609.79	   97.24
     32.4563	  145.00	  123.34	 -579.34	   97.16
     32.4897	  135.00	  122.08	 -588.08	   97.08
     32.5231	  133.00	  120.98	 -588.98	   97.00
     32.5566	  122.00	  120.01	 -599.01	   96.92
     32.5900	  144.00	  119.16	 -576.16	   96.84
     32.6234	  108.00	  118.40	 -611.40	   96.76
     32.6568	  116.00	  117.74	 -602.74	   96.67
     32.6903	  105.00	  117.15	 -613.15	   96.59
     32.7237	  141.00	  116.62	 -576.62	   96.51
     32.7571	  126.00	  116.16	 -591.16	   96.43
     32.7905	   99.00	  115.74	 -617.74	   96.35
     32.8239	  126.00	  115.38	 -590.38	   96.27
     32.8574	  112.00	  115.06	 -604.06	   96.19
     32.8908	  121.00	  114.78	 -594.78	   96.11
     32.9242	  104.00	  114.53	 -611.53	   96.03
     32.9576	  124.00	  114.32	 -591.32	   95.95
     32.9911	  127.00	  114.15	 -588.15	   95.87
     33.0245	  124.00	  114.00	 -591.00	   95.79
     33.0579	  111.00	  113.89	 -603.89	   95.70
     33.0913	  116.00	  113.80	 -598.80	   95.62
     33.1247	  117.00	  113.75	 -597.75	   95.54
     33.1582	  105.00	  113.73	 -609.73	   95.46
     33.1916	   94.00	  113.73	 -620.73	   95.38
     33.2250	  112.00	  113.77	 -602.77	   95.30
     33.2584	  118.00	  113.84	 -596.84	   95.22
     33.2919	  132.00	  113.95	 -582.95	   95.14
     33.3253	  114.00	  114.09	 -601.09	   95.06
     33.3587	  127.00	  114.27	 -588.27	   94.98
     33.3921	  108.00	  114.50	 -607.50	   94.91
