 ZnO   Chi2:  2.9617  CELL:    3.24980   3.24980   5.20664   90.0000   90.0000  120.0000   SPGR: P 63 m c               TEMP:      0.00
  1   2992     1.54060     1.54439     0.00000    -0.07481     0.00000    0
    49     0     1
       0.00000      15.00000
 2Theta	Yobs	Ycal	Yobs-Ycal	Backg	Posr	(hkl)	K
     20.0165	   21.00	   19.99	 -400.39	   17.42
     20.0499	   26.00	   19.98	 -395.39	   17.42
     20.0834	   18.00	   19.98	 -403.38	   17.41
     20.1168	   27.00	   19.98	 -394.38	   17.41
     20.1502	   23.00	   19.97	 -398.38	   17.41
     20.1836	   26.00	   19.97	 -395.37	   17.40
     20.2170	   12.00	   19.97	 -409.37	   17.40
     20.2505	   21.00	   19.96	 -400.37	   17.40
     20.2839	   30.00	   19.96	 -391.36	   17.39
     20.3173	   18.00	   19.96	 -403.36	   17.39
     20.3507	   16.00	   19.95	 -405.36	   17.39
     20.3842	   20.00	   19.95	 -401.35	   17.38
     20.4176	   17.00	   19.95	 -404.35	   17.38
     20.4510	   16.00	   19.94	 -405.35	   17.38
     20.4844	   20.00	   19.94	 -401.34	   17.38
     20.5179	   27.00	   19.94	 -394.34	   17.37
     20.5513	   17.00	   19.93	 -404.34	   17.37
     20.5847	   16.00	   19.93	 -405.33	   17.37
     20.6181	   17.00	   19.93	 -404.33	   17.36
     20.6515	   18.00	   19.92	 -403.33	   17.36
     20.6850	   21.00	   19.92	 -400.32	   17.36
     20.7184	   20.00	   19.92	 -401.32	   17.35
     20.7518	   12.00	   19.91	 -409.32	   17.35
     20.7852	   18.00	   19.91	 -403.31	   17.35
     20.8187	   13.00	   19.91	 -408.31	   17.34
     20.8521	   17.00	   19.90	 -404.31	   17.34
     20.8855	   20.00	   19.90	 -401.31	   17.34
     20.9189	   21.00	   19.90	 -400.30	   17.33
     20.9523	   17.00	   19.89	 -404.30	   17.33
     20.9858	   20.00	   19.89	 -401.30	   17.33
     21.0192	   23.00	   19.89	 -398.29	   17.32
     21.0526	   18.00	   19.88	 -403.29	   17.32
     21.0860	   25.00	   19.88	 -396.29	   17.32
     21.1195	   23.00	   19.88	 -398.28	   17.31
     21.1529	   25.00	   19.87	 -396.28	   17.31
     21.1863	   22.00	   19.87	 -399.28	   17.31
     21.2197	   30.00	   19.87	 -391.27	   17.30
     21.2531	   13.00	   19.86	 -408.27	   17.30
     21.2866	   26.00	   19.86	 -395.27	   17.30
     21.3200	   12.00	   19.86	 -409.26	   17.29
     21.3534	   21.00	   19.86	 -400.26	   17.29
     21.3868	   15.00	   19.85	 -406.26	   17.29
     21.4203	   12.00	   19.85	 -409.25	   17.28
     21.4537	   22.00	   19.85	 -399.25	   17.28
     21.4871	   22.00	   19.84	 -399.25	   17.28
     21.5205	   32.00	   19.84	 -389.24	   17.27
     21.5539	   36.00	   19.84	 -385.24	   17.27
     21.5874	   13.00	   19.83	 -408.24	   17.27
     21.6208	   22.00	   19.83	 -399.23	   17.26
     21.6542	   17.00	   19.83	 -404.23	   17.26
     21.6876	   23.00	   19.82	 -398.23	   17.26
     21.7211	   11.00	   19.82	 -410.22	   17.25
     21.7545	   17.00	   19.82	 -404.22	   17.25
     21.7879	   15.00	   19.81	 -406.22	   17.25
     21.8213	   16.00	   19.81	 -405.21	   17.25
     21.8548	   18.00	   19.81	 -403.21	   17.24
     21.8882	   22.00	   19.80	 -399.21	   17.24
     21.9216	   18.00	   19.80	 -403.20	   17.24
     21.9550	   22.00	   19.80	 -399.20	   17.23
     21.9884	   16.00	   19.79	 -405.20	   17.23
     22.0219	   27.00	   19.79	 -394.19	   17.23
     22.0553	   16.00	   19.79	 -405.19	   17.22
     22.0887	   20.00	   19.78	 -401.19	   17.22
     22.1221	   18.00	   19.78	 -403.18	   17.22
     22.1556	   28.00	   19.78	 -393.18	   17.21
     22.1890	   21.00	   19.77	 -400.18	   17.21
     22.2224	   22.00	   19.77	 -399.17	   17.21
     22.2558	   26.00	   19.77	 -395.17	   17.20
     22.2892	   22.00	   19.76	 -399.17	   17.20
     22.3227	   21.00	   19.76	 -400.17	   17.20
     22.3561	   28.00	   19.76	 -393.16	   17.19
     22.3895	   18.00	   19.75	 -403.16	   17.19
     22.4229	   11.00	   19.75	 -410.16	   17.19
     22.4564	   28.00	   19.75	 -393.15	   17.18
     22.4898	   20.00	   19.74	 -401.15	   17.18
     22.5232	   12.00	   19.74	 -409.15	   17.18
     22.5566	   12.00	   19.74	 -409.14	   17.17
     22.5900	   18.00	   19.73	 -403.14	   17.17
     22.6235	   22.00	   19.73	 -399.14	   17.17
     22.6569	   23.00	   19.73	 -398.13	   17.16
     22.6903	   26.00	   19.72	 -395.13	   17.16
     22.7237	   13.00	   19.72	 -408.13	   17.16
     22.7572	   25.00	   19.72	 -396.12	   17.15
     22.7906	   15.00	   19.72	 -406.12	   17.15
     22.8240	   21.00	   19.71	 -400.12	   17.15
     22.8574	   22.00	   19.71	 -399.11	   17.14
     22.8909	   18.00	   19.71	 -403.11	   17.14
     22.9243	   23.00	   19.70	 -398.11	   17.14
     22.9577	   22.00	   19.70	 -399.10	   17.13
     22.9911	   16.00	   19.70	 -405.10	   17.13
     23.0245	   17.00	   19.69	 -404.10	   17.13
     23.0580	   22.00	   19.69	 -399.09	   17.12
     23.0914	   22.00	   19.69	 -399.09	   17.12
     23.1248	   26.00	   19.68	 -395.09	   17.12
     23.1582	   20.00	   19.68	 -401.08	   17.11
     23.1917	   26.00	   19.68	 -395.08	   17.11
     23.2251	   17.00	   19.67	 -404.08	   17.11
     23.2585	   23.00	   19.67	 -398.07	   17.11
     23.2919	   20.00	   19.67	 -401.07	   17.10
     23.3253	   17.00	   19.66	 -404.07	   17.10
     23.3588	   15.00	   19.66	 -406.06	   17.10
     23.3922	   22.00	   19.66	 -399.06	   17.09
     23.4256	   17.00	   19.65	 -404.06	   17.09
     23.4590	   17.00	   19.65	 -404.05	   17.09
     23.4925	   25.00	   19.65	 -396.05	   17.08
     23.5259	   11.00	   19.64	 -410.05	   17.08
     23.5593	   27.00	   19.64	 -394.04	   17.08
     23.5927	   20.00	   19.64	 -401.04	   17.07
     23.6261	   23.00	   19.63	 -398.04	   17.07
     23.6596	   21.00	   19.63	 -400.04	   17.07
     23.6930	   15.00	   19.63	 -406.03	   17.06
     23.7264	   13.00	   19.62	 -408.03	   17.06
     23.7598	   18.00	   19.62	 -403.03	   17.06
     23.7933	   12.00	   19.62	 -409.02	   17.05
     23.8267	   17.00	   19.61	 -404.02	   17.05
     23.8601	   22.00	   19.61	 -399.02	   17.05
     23.8935	   18.00	   19.61	 -403.01	   17.04
     23.9269	   17.00	   19.60	 -404.01	   17.04
     23.9604	    8.00	   19.60	 -413.01	   17.04
     23.9938	   25.00	   19.60	 -396.00	   17.03
     24.0272	   18.00	   19.59	 -403.00	   17.03
     24.0606	   23.00	   19.59	 -398.00	   17.03
     24.0941	   18.00	   19.59	 -402.99	   17.02
     24.1275	   16.00	   19.59	 -404.99	   17.02
     24.1609	   16.00	   19.58	 -404.99	   17.02
     24.1943	   17.00	   19.58	 -403.98	   17.01
     24.2278	   26.00	   19.58	 -394.98	   17.01
     24.2612	   17.00	   19.57	 -403.98	   17.01
     24.2946	   13.00	   19.57	 -407.97	   17.00
     24.3280	   18.00	   19.57	 -402.97	   17.00
     24.3614	   18.00	   19.56	 -402.97	   17.00
     24.3949	   18.00	   19.56	 -402.96	   16.99
     24.4283	   17.00	   19.56	 -403.96	   16.99
     24.4617	   20.00	   19.55	 -400.96	   16.99
     24.4951	   21.00	   19.55	 -399.95	   16.98
     24.5286	   26.00	   19.55	 -394.95	   16.98
     24.5620	   11.00	   19.54	 -409.95	   16.98
     24.5954	   16.00	   19.54	 -404.94	   16.98
     24.6288	   26.00	   19.54	 -394.94	   16.97
     24.6622	   13.00	   19.53	 -407.94	   16.97
     24.6957	   22.00	   19.53	 -398.93	   16.97
     24.7291	   21.00	   19.53	 -399.93	   16.96
     24.7625	   21.00	   19.52	 -399.93	   16.96
     24.7959	   12.00	   19.52	 -408.92	   16.96
     24.8294	   16.00	   19.52	 -404.92	   16.95
     24.8628	    7.00	   19.51	 -413.92	   16.95
     24.8962	   10.00	   19.51	 -410.91	   16.95
     24.9296	   18.00	   19.51	 -402.91	   16.94
     24.9630	   18.00	   19.50	 -402.91	   16.94
     24.9965	   21.00	   19.50	 -399.90	   16.94
     25.0299	   15.00	   19.50	 -405.90	   16.93
     25.0633	   11.00	   19.49	 -409.90	   16.93
     25.0967	   15.00	   19.49	 -405.90	   16.93
     25.1302	   21.00	   19.49	 -399.89	   16.92
     25.1636	   28.00	   19.48	 -392.89	   16.92
     25.1970	   20.00	   19.48	 -400.89	   16.92
     25.2304	   23.00	   19.48	 -397.88	   16.91
     25.2639	   22.00	   19.47	 -398.88	   16.91
     25.2973	   21.00	   19.47	 -399.88	   16.91
     25.3307	   12.00	   19.47	 -408.87	   16.90
     25.3641	   15.00	   19.46	 -405.87	   16.90
     25.3975	   12.00	   19.46	 -408.87	   16.90
     25.4310	   12.00	   19.46	 -408.86	   16.89
     25.4644	   22.00	   19.45	 -398.86	   16.89
     25.4978	   27.00	   19.45	 -393.86	   16.89
     25.5312	   27.00	   19.45	 -393.85	   16.88
     25.5647	   18.00	   19.45	 -402.85	   16.88
     25.5981	   23.00	   19.44	 -397.85	   16.88
     25.6315	   21.00	   19.44	 -399.84	   16.87
     25.6649	   23.00	   19.44	 -397.84	   16.87
     25.6983	   15.00	   19.43	 -405.84	   16.87
     25.7318	   23.00	   19.43	 -397.83	   16.86
     25.7652	   17.00	   19.43	 -403.83	   16.86
     25.7986	   31.00	   19.42	 -389.83	   16.86
     25.8320	   18.00	   19.42	 -402.82	   16.85
     25.8655	   21.00	   19.42	 -399.82	   16.85
     25.8989	   23.00	   19.41	 -397.82	   16.85
     25.9323	   17.00	   19.41	 -403.81	   16.85
     25.9657	   20.00	   19.41	 -400.81	   16.84
     25.9991	   17.00	   19.40	 -403.81	   16.84
     26.0326	   15.00	   19.40	 -405.80	   16.84
     26.0660	   17.00	   19.40	 -403.80	   16.83
     26.0994	   20.00	   19.39	 -400.80	   16.83
     26.1328	   22.00	   19.39	 -398.79	   16.83
     26.1663	   20.00	   19.39	 -400.79	   16.82
     26.1997	   16.00	   19.38	 -404.79	   16.82
     26.2331	   18.00	   19.38	 -402.78	   16.82
     26.2665	   21.00	   19.38	 -399.78	   16.81
     26.2999	   17.00	   19.37	 -403.78	   16.81
     26.3334	   16.00	   19.37	 -404.77	   16.81
     26.3668	   10.00	   19.37	 -410.77	   16.80
     26.4002	   21.00	   19.36	 -399.77	   16.80
     26.4336	   12.00	   19.36	 -408.77	   16.80
     26.4671	   28.00	   19.36	 -392.76	   16.79
     26.5005	   16.00	   19.35	 -404.76	   16.79
     26.5339	   26.00	   19.35	 -394.76	   16.79
     26.5673	   16.00	   19.35	 -404.75	   16.78
     26.6008	   23.00	   19.34	 -397.75	   16.78
     26.6342	   16.00	   19.34	 -404.75	   16.78
     26.6676	   17.00	   19.34	 -403.74	   16.77
     26.7010	   23.00	   19.33	 -397.74	   16.77
     26.7344	   21.00	   19.33	 -399.74	   16.77
     26.7679	   21.00	   19.33	 -399.73	   16.76
     26.8013	   27.00	   19.32	 -393.73	   16.76
     26.8347	   28.00	   19.32	 -392.73	   16.76
     26.8681	   31.00	   19.32	 -389.72	   16.75
     26.9016	   13.00	   19.32	 -407.72	   16.75
     26.9350	   13.00	   19.31	 -407.72	   16.75
     26.9684	   27.00	   19.31	 -393.71	   16.74
     27.0018	   21.00	   19.31	 -399.71	   16.74
     27.0352	   25.00	   19.30	 -395.71	   16.74
     27.0687	   12.00	   19.30	 -408.70	   16.73
     27.1021	   20.00	   19.30	 -400.70	   16.73
     27.1355	   30.00	   19.29	 -390.70	   16.73
     27.1689	   12.00	   19.29	 -408.69	   16.72
     27.2024	   27.00	   19.29	 -393.69	   16.72
     27.2358	   20.00	   19.28	 -400.69	   16.72
     27.2692	   26.00	   19.28	 -394.68	   16.71
     27.3026	   20.00	   19.28	 -400.68	   16.71
     27.3360	   25.00	   19.27	 -395.68	   16.71
     27.3695	   23.00	   19.27	 -397.67	   16.71
     27.4029	   22.00	   19.27	 -398.67	   16.70
     27.4363	   16.00	   19.26	 -404.67	   16.70
     27.4697	   11.00	   19.26	 -409.66	   16.70
     27.5032	   18.00	   19.26	 -402.66	   16.69
     27.5366	   20.00	   19.25	 -400.66	   16.69
     27.5700	   26.00	   19.25	 -394.65	   16.69
     27.6034	   16.00	   19.39	 -404.80	   16.68
     27.6369	   20.00	   19.39	 -400.80	   16.68
     27.6703	   17.00	   19.39	 -403.80	   16.68
     27.7037	   16.00	   19.47	 -404.87	   16.67
     27.7371	   18.00	   19.47	 -402.87	   16.67
     27.7705	   20.00	   19.47	 -400.87	   16.67
     27.8040	   18.00	   19.47	 -402.87	   16.66
     27.8374	   17.00	   19.47	 -403.87	   16.66
     27.8708	   25.00	   19.47	 -395.87	   16.66
     27.9042	   17.00	   19.47	 -403.87	   16.65
     27.9377	   18.00	   19.47	 -402.88	   16.65
     27.9711	   26.00	   19.47	 -394.88	   16.65
     28.0045	   10.00	   19.47	 -410.88	   16.64
     28.0379	   35.00	   19.48	 -385.88	   16.64
     28.0713	   26.00	   19.48	 -394.88	   16.64
     28.1048	   26.00	   19.48	 -394.88	   16.63
     28.1382	   18.00	   19.48	 -402.89	   16.63
     28.1716	   31.00	   19.48	 -389.89	   16.63
     28.2050	   12.00	   19.49	 -408.89	   16.62
     28.2385	   13.00	   19.49	 -407.89	   16.62
     28.2719	   21.00	   19.49	 -399.90	   16.62
     28.3053	   21.00	   19.49	 -399.90	   16.61
     28.3387	   16.00	   19.50	 -404.90	   16.61
     28.3721	   20.00	   19.50	 -400.90	   16.61
     28.4056	   15.00	   19.50	 -405.91	   16.60
     28.4390	   20.00	   19.51	 -400.91	   16.60
     28.4724	   31.00	   19.51	 -389.92	   16.60
     28.5058	   21.00	   19.51	 -399.92	   16.59
     28.5393	   21.00	   19.52	 -399.92	   16.59
     28.5727	   16.00	   19.52	 -404.93	   16.59
     28.6061	   20.00	   19.53	 -400.93	   16.58
     28.6395	   17.00	   19.53	 -403.94	   16.58
     28.6729	   36.00	   19.54	 -384.94	   16.58
     28.7064	   26.00	   19.54	 -394.95	   16.58
     28.7398	   27.00	   19.55	 -393.95	   16.57
     28.7732	   27.00	   19.56	 -393.96	   16.57
     28.8066	   28.00	   19.56	 -392.97	   16.57
     28.8401	   21.00	   19.57	 -399.97	   16.56
     28.8735	   28.00	   19.58	 -392.98	   16.56
     28.9069	   21.00	   19.58	 -399.99	   16.56
     28.9403	   22.00	   19.59	 -399.00	   16.55
     28.9738	   18.00	   19.60	 -403.01	   16.55
     29.0072	   27.00	   19.61	 -394.01	   16.55
     29.0406	   16.00	   19.62	 -405.02	   16.54
     29.0740	   26.00	   19.63	 -395.03	   16.54
     29.1074	   32.00	   19.64	 -389.04	   16.54
     29.1409	   22.00	   19.65	 -399.05	   16.53
     29.1743	   18.00	   19.66	 -403.07	   16.53
     29.2077	   13.00	   19.67	 -408.08	   16.53
     29.2411	   16.00	   19.69	 -405.09	   16.52
     29.2746	   26.00	   19.70	 -395.10	   16.52
     29.3080	   13.00	   19.71	 -408.12	   16.52
     29.3414	   16.00	   19.73	 -405.13	   16.51
     29.3748	   18.00	   19.74	 -403.15	   16.51
     29.4082	   18.00	   19.76	 -403.16	   16.51
     29.4417	   20.00	   19.78	 -401.18	   16.50
     29.4751	   15.00	   19.79	 -406.20	   16.50
     29.5085	   23.00	   19.81	 -398.22	   16.50
     29.5419	   18.00	   19.83	 -403.24	   16.49
     29.5754	   26.00	   19.85	 -395.26	   16.49
     29.6088	   20.00	   19.87	 -401.28	   16.49
     29.6422	   21.00	   19.90	 -400.30	   16.48
     29.6756	   17.00	   19.92	 -404.33	   16.48
     29.7090	   17.00	   19.95	 -404.35	   16.48
     29.7425	   32.00	   19.98	 -389.38	   16.47
     29.7759	   21.00	   20.01	 -400.41	   16.47
     29.8093	   23.00	   20.04	 -398.44	   16.47
     29.8427	   27.00	   20.07	 -394.47	   16.46
     29.8762	   22.00	   20.10	 -399.51	   16.46
     29.9096	   25.00	   20.14	 -396.55	   16.46
     29.9430	   20.00	   20.18	 -401.58	   16.45
     29.9764	   25.00	   20.22	 -396.63	   16.45
     30.0098	   23.00	   20.27	 -398.67	   16.45
     30.0433	   21.00	   20.31	 -400.72	   16.44
     30.0767	   28.00	   20.36	 -393.77	   16.44
     30.1101	   30.00	   20.42	 -391.82	   16.44
     30.1435	   18.00	   20.47	 -403.88	   16.44
     30.1770	   21.00	   20.53	 -400.94	   16.43
     30.2104	   25.00	   20.60	 -397.00	   16.43
     30.2438	   23.00	   20.78	 -399.18	   16.43
     30.2772	   17.00	   20.86	 -405.26	   16.42
     30.3107	   25.00	   20.94	 -397.34	   16.42
     30.3441	   21.00	   21.08	 -401.49	   16.42
     30.3775	   21.00	   21.18	 -401.58	   16.41
     30.4109	   21.00	   21.28	 -401.69	   16.41
     30.4443	   21.00	   21.39	 -401.80	   16.41
     30.4778	   23.00	   21.52	 -399.92	   16.40
     30.5112	   23.00	   21.65	 -400.05	   16.40
     30.5446	   22.00	   21.79	 -401.20	   16.40
     30.5780	   26.00	   21.95	 -397.35	   16.39
     30.6115	   27.00	   22.12	 -396.52	   16.39
     30.6449	   21.00	   22.31	 -402.71	   16.39
     30.6783	   22.00	   22.51	 -401.91	   16.38
     30.7117	   17.00	   22.74	 -407.14	   16.38
     30.7451	   25.00	   22.99	 -399.39	   16.38
     30.7786	   21.00	   23.26	 -403.67	   16.37
     30.8120	   28.00	   23.57	 -396.97	   16.37
     30.8454	   23.00	   23.91	 -402.31	   16.37
     30.8788	   31.00	   24.29	 -394.70	   16.36
     30.9123	   33.00	   24.72	 -393.13	   16.36
     30.9457	   27.00	   25.21	 -399.62	   16.36
     30.9791	   30.00	   25.77	 -397.17	   16.35
     31.0125	   30.00	   26.40	 -397.81	   16.35
     31.0459	   31.00	   27.13	 -397.53	   16.35
     31.0794	   27.00	   27.97	 -402.38	   16.34
     31.1128	   43.00	   28.96	 -387.36	   16.34
     31.1462	   27.00	   30.12	 -404.52	   16.34
     31.1796	   41.00	   31.49	 -391.89	   16.33
     31.2131	   28.00	   33.14	 -406.54	   16.33
     31.2465	   46.00	   35.14	 -390.54	   16.33
     31.2799	   47.00	   37.59	 -392.00	   16.32
     31.3133	   47.00	   40.66	 -395.06	   16.32
     31.3468	   43.00	   44.54	 -402.95	   16.32
     31.3802	   51.00	   49.58	 -399.98	   16.31
     31.4136	   67.00	   56.31	 -390.71	   16.31
     31.4470	   76.00	   65.84	 -391.24	   16.31
     31.4804	   96.00	   80.82	 -386.23	   16.31
     31.5139	  103.00	  107.70	 -406.10	   16.30
     31.5473	  139.00	  159.62	 -422.03	   16.30
     31.5807	  211.00	  256.41	 -446.81	   16.30
     31.6141	  331.00	  415.38	 -485.78	   16.29
     31.6476	  658.00	  630.23	 -373.63	   16.29
     31.6810	  945.00	  836.42	 -292.83	   16.29
     31.7144	  999.00	  917.03	 -319.44	   16.28
     31.7478	  950.00	  853.05	 -304.46	   16.28
     31.7812	  717.00	  706.70	 -391.11	   16.28
     31.8147	  527.00	  515.87	 -390.27	   16.27
     31.8481	  310.00	  340.23	 -431.64	   16.27
     31.8815	  206.00	  215.41	 -410.82	   16.27
     31.9149	  134.00	  139.53	 -406.93	   16.26
     31.9484	   87.00	   97.60	 -412.01	   16.26
     31.9818	   60.00	   74.96	 -416.37	   16.26
     32.0152	   70.00	   61.91	 -393.32	   16.25
     32.0486	   56.00	   53.75	 -399.15	   16.25
     32.0820	   62.00	   47.75	 -387.15	   16.25
     32.1155	   45.00	   43.24	 -399.64	   16.24
     32.1489	   45.00	   39.87	 -396.28	   16.24
     32.1823	   38.00	   37.10	 -400.51	   16.24
     32.2157	   33.00	   34.88	 -403.28	   16.23
     32.2492	   37.00	   33.06	 -397.47	   16.23
     32.2826	   27.00	   31.56	 -405.97	   16.23
     32.3160	   35.00	   30.31	 -396.72	   16.22
     32.3494	   35.00	   29.26	 -395.67	   16.22
     32.3829	   32.00	   28.37	 -397.77	   16.22
     32.4163	   31.00	   27.61	 -398.01	   16.21
     32.4497	   17.00	   26.95	 -411.36	   16.21
     32.4831	   30.00	   26.39	 -397.79	   16.21
     32.5165	   23.00	   25.90	 -404.30	   16.20
     32.5500	   38.00	   25.47	 -388.88	   16.20
     32.5834	   28.00	   25.10	 -398.51	   16.20
     32.6168	   28.00	   24.78	 -398.18	   16.19
     32.6502	   48.00	   24.49	 -377.90	   16.19
     32.6837	   30.00	   24.25	 -395.65	   16.19
     32.7171	   32.00	   24.03	 -393.43	   16.18
     32.7505	   22.00	   23.84	 -403.24	   16.18
     32.7839	   22.00	   23.67	 -403.08	   16.18
     32.8173	   27.00	   23.53	 -397.94	   16.18
     32.8508	   20.00	   23.41	 -404.82	   16.17
     32.8842	   25.00	   23.31	 -399.71	   16.17
     32.9176	   26.00	   23.23	 -398.63	   16.17
     32.9510	   33.00	   23.16	 -391.56	   16.16
     32.9845	   32.00	   23.11	 -392.51	   16.16
     33.0179	   17.00	   23.07	 -407.47	   16.16
     33.0513	   23.00	   23.04	 -401.45	   16.15
     33.0847	   27.00	   23.04	 -397.44	   16.15
     33.1181	   28.00	   23.04	 -396.45	   16.15
     33.1516	   38.00	   23.06	 -386.47	   16.14
     33.1850	   26.00	   23.10	 -398.50	   16.14
     33.2184	   30.00	   23.15	 -394.55	   16.14
     33.2518	   32.00	   23.21	 -392.61	   16.13
     33.2853	   31.00	   23.29	 -393.70	   16.13
     33.3187	   28.00	   23.39	 -396.79	   16.13
     33.3521	   28.00	   23.51	 -396.91	   16.12
     33.3855	   17.00	   23.65	 -408.05	   16.12
