 ZnO   Chi2:  2.5619  CELL:    3.24994   3.24994   5.20716   90.0000   90.0000  120.0000   SPGR: P 63 m c               TEMP:      0.00
  1   2992     1.54060     1.54439     0.00000    -0.05949     0.00000    0
    50     0     1
       0.00000      15.00000
 2Theta	Yobs	Ycal	Yobs-Ycal	Backg	Posr	(hkl)	K
     20.0165	   30.00	   23.51	 -293.09	   19.54
     20.0499	   25.00	   23.51	 -298.08	   19.54
     20.0834	   18.00	   23.51	 -305.08	   19.54
     20.1168	   31.00	   23.50	 -292.08	   19.54
     20.1502	   21.00	   23.50	 -302.08	   19.53
     20.1836	   30.00	   23.50	 -293.07	   19.53
     20.2170	   23.00	   23.50	 -300.07	   19.53
     20.2505	   27.00	   23.49	 -296.07	   19.53
     20.2839	   31.00	   23.49	 -292.07	   19.52
     20.3173	   21.00	   23.49	 -302.06	   19.52
     20.3507	   23.00	   23.49	 -300.06	   19.52
     20.3842	   26.00	   23.48	 -297.06	   19.52
     20.4176	   23.00	   23.48	 -300.05	   19.51
     20.4510	   38.00	   23.48	 -285.05	   19.51
     20.4844	   33.00	   23.48	 -290.05	   19.51
     20.5179	   32.00	   23.47	 -291.05	   19.50
     20.5513	   20.00	   23.47	 -303.04	   19.50
     20.5847	   23.00	   23.47	 -300.04	   19.50
     20.6181	   28.00	   23.47	 -295.04	   19.50
     20.6515	   17.00	   23.46	 -306.04	   19.49
     20.6850	   32.00	   23.46	 -291.03	   19.49
     20.7184	   25.00	   23.46	 -298.03	   19.49
     20.7518	   28.00	   23.46	 -295.03	   19.49
     20.7852	   22.00	   23.45	 -301.03	   19.48
     20.8187	   28.00	   23.45	 -295.02	   19.48
     20.8521	   32.00	   23.45	 -291.02	   19.48
     20.8855	   23.00	   23.45	 -300.02	   19.48
     20.9189	   32.00	   23.44	 -291.02	   19.47
     20.9523	   33.00	   23.44	 -290.01	   19.47
     20.9858	   23.00	   23.44	 -300.01	   19.47
     21.0192	   28.00	   23.43	 -295.01	   19.47
     21.0526	   18.00	   23.43	 -305.01	   19.46
     21.0860	   27.00	   23.43	 -296.00	   19.46
     21.1195	   26.00	   23.43	 -297.00	   19.46
     21.1529	   31.00	   23.42	 -292.00	   19.46
     21.1863	   25.00	   23.42	 -298.00	   19.45
     21.2197	   28.00	   23.42	 -294.99	   19.45
     21.2531	   26.00	   23.42	 -296.99	   19.45
     21.2866	   27.00	   23.41	 -295.99	   19.45
     21.3200	   31.00	   23.41	 -291.99	   19.44
     21.3534	   21.00	   23.41	 -301.98	   19.44
     21.3868	   30.00	   23.41	 -292.98	   19.44
     21.4203	   23.00	   23.40	 -299.98	   19.44
     21.4537	   17.00	   23.40	 -305.98	   19.43
     21.4871	   36.00	   23.40	 -286.97	   19.43
     21.5205	   37.00	   23.40	 -285.97	   19.43
     21.5539	   28.00	   23.39	 -294.97	   19.43
     21.5874	   22.00	   23.39	 -300.97	   19.42
     21.6208	   15.00	   23.39	 -307.96	   19.42
     21.6542	   32.00	   23.39	 -290.96	   19.42
     21.6876	   43.00	   23.38	 -279.96	   19.42
     21.7211	   27.00	   23.38	 -295.96	   19.41
     21.7545	   15.00	   23.38	 -307.95	   19.41
     21.7879	   18.00	   23.38	 -304.95	   19.41
     21.8213	   33.00	   23.37	 -289.95	   19.41
     21.8548	   31.00	   23.37	 -291.95	   19.40
     21.8882	   35.00	   23.37	 -287.94	   19.40
     21.9216	   12.00	   23.37	 -310.94	   19.40
     21.9550	   20.00	   23.36	 -302.94	   19.40
     21.9884	   22.00	   23.36	 -300.93	   19.39
     22.0219	   13.00	   23.36	 -309.93	   19.39
     22.0553	   31.00	   23.36	 -291.93	   19.39
     22.0887	   28.00	   23.35	 -294.93	   19.38
     22.1221	   11.00	   23.35	 -311.92	   19.38
     22.1556	   31.00	   23.35	 -291.92	   19.38
     22.1890	   32.00	   23.35	 -290.92	   19.38
     22.2224	   23.00	   23.34	 -299.92	   19.37
     22.2558	   28.00	   23.34	 -294.91	   19.37
     22.2892	   31.00	   23.34	 -291.91	   19.37
     22.3227	   40.00	   23.34	 -282.91	   19.37
     22.3561	   36.00	   23.33	 -286.91	   19.36
     22.3895	   25.00	   23.33	 -297.90	   19.36
     22.4229	   26.00	   23.33	 -296.90	   19.36
     22.4564	   22.00	   23.33	 -300.90	   19.36
     22.4898	   26.00	   23.32	 -296.90	   19.35
     22.5232	   20.00	   23.32	 -302.89	   19.35
     22.5566	   25.00	   23.32	 -297.89	   19.35
     22.5900	   27.00	   23.31	 -295.89	   19.35
     22.6235	   26.00	   23.31	 -296.89	   19.34
     22.6569	   25.00	   23.31	 -297.88	   19.34
     22.6903	   20.00	   23.31	 -302.88	   19.34
     22.7237	   25.00	   23.30	 -297.88	   19.34
     22.7572	   22.00	   23.30	 -300.88	   19.33
     22.7906	   22.00	   23.30	 -300.87	   19.33
     22.8240	   26.00	   23.30	 -296.87	   19.33
     22.8574	   28.00	   23.29	 -294.87	   19.33
     22.8909	   12.00	   23.29	 -310.87	   19.32
     22.9243	   22.00	   23.29	 -300.86	   19.32
     22.9577	   23.00	   23.29	 -299.86	   19.32
     22.9911	   23.00	   23.28	 -299.86	   19.32
     23.0245	   21.00	   23.28	 -301.86	   19.31
     23.0580	   16.00	   23.28	 -306.85	   19.31
     23.0914	   17.00	   23.28	 -305.85	   19.31
     23.1248	   18.00	   23.27	 -304.85	   19.31
     23.1582	   25.00	   23.27	 -297.85	   19.30
     23.1917	   27.00	   23.27	 -295.84	   19.30
     23.2251	   33.00	   23.27	 -289.84	   19.30
     23.2585	   13.00	   23.26	 -309.84	   19.30
     23.2919	   26.00	   23.26	 -296.84	   19.29
     23.3253	   23.00	   23.26	 -299.83	   19.29
     23.3588	   26.00	   23.26	 -296.83	   19.29
     23.3922	   22.00	   23.25	 -300.83	   19.29
     23.4256	   22.00	   23.25	 -300.83	   19.28
     23.4590	   21.00	   23.25	 -301.82	   19.28
     23.4925	   21.00	   23.25	 -301.82	   19.28
     23.5259	   28.00	   23.24	 -294.82	   19.28
     23.5593	   28.00	   23.24	 -294.81	   19.27
     23.5927	   23.00	   23.24	 -299.81	   19.27
     23.6261	   15.00	   23.24	 -307.81	   19.27
     23.6596	   22.00	   23.23	 -300.81	   19.26
     23.6930	   25.00	   23.23	 -297.80	   19.26
     23.7264	   23.00	   23.23	 -299.80	   19.26
     23.7598	   27.00	   23.23	 -295.80	   19.26
     23.7933	   27.00	   23.22	 -295.80	   19.25
     23.8267	   21.00	   23.22	 -301.79	   19.25
     23.8601	   23.00	   23.22	 -299.79	   19.25
     23.8935	   16.00	   23.22	 -306.79	   19.25
     23.9269	   33.00	   23.21	 -289.79	   19.24
     23.9604	   13.00	   23.21	 -309.78	   19.24
     23.9938	   21.00	   23.21	 -301.78	   19.24
     24.0272	   26.00	   23.21	 -296.78	   19.24
     24.0606	   17.00	   23.20	 -305.78	   19.23
     24.0941	   27.00	   23.20	 -295.77	   19.23
     24.1275	   27.00	   23.20	 -295.77	   19.23
     24.1609	   20.00	   23.19	 -302.77	   19.23
     24.1943	   31.00	   23.19	 -291.77	   19.22
     24.2278	   23.00	   23.19	 -299.76	   19.22
     24.2612	   26.00	   23.19	 -296.76	   19.22
     24.2946	   26.00	   23.18	 -296.76	   19.22
     24.3280	   31.00	   23.18	 -291.76	   19.21
     24.3614	   18.00	   23.18	 -304.75	   19.21
     24.3949	   17.00	   23.18	 -305.75	   19.21
     24.4283	   27.00	   23.17	 -295.75	   19.21
     24.4617	   28.00	   23.17	 -294.75	   19.20
     24.4951	   25.00	   23.17	 -297.74	   19.20
     24.5286	   25.00	   23.17	 -297.74	   19.20
     24.5620	   18.00	   23.16	 -304.74	   19.20
     24.5954	   22.00	   23.16	 -300.74	   19.19
     24.6288	   27.00	   23.16	 -295.73	   19.19
     24.6622	   21.00	   23.16	 -301.73	   19.19
     24.6957	   23.00	   23.15	 -299.73	   19.19
     24.7291	   25.00	   23.15	 -297.73	   19.18
     24.7625	   17.00	   23.15	 -305.72	   19.18
     24.7959	   23.00	   23.15	 -299.72	   19.18
     24.8294	   25.00	   23.14	 -297.72	   19.18
     24.8628	   18.00	   23.14	 -304.72	   19.17
     24.8962	   18.00	   23.14	 -304.71	   19.17
     24.9296	   20.00	   23.14	 -302.71	   19.17
     24.9630	   30.00	   23.13	 -292.71	   19.17
     24.9965	   15.00	   23.13	 -307.71	   19.16
     25.0299	   15.00	   23.13	 -307.70	   19.16
     25.0633	   18.00	   23.13	 -304.70	   19.16
     25.0967	   23.00	   23.12	 -299.70	   19.16
     25.1302	   17.00	   23.12	 -305.69	   19.15
     25.1636	   23.00	   23.12	 -299.69	   19.15
     25.1970	   12.00	   23.12	 -310.69	   19.15
     25.2304	   13.00	   23.11	 -309.69	   19.14
     25.2639	   18.00	   23.11	 -304.68	   19.14
     25.2973	   27.00	   23.11	 -295.68	   19.14
     25.3307	   22.00	   23.11	 -300.68	   19.14
     25.3641	   28.00	   23.10	 -294.68	   19.13
     25.3975	   27.00	   23.10	 -295.67	   19.13
     25.4310	   23.00	   23.10	 -299.67	   19.13
     25.4644	   21.00	   23.10	 -301.67	   19.13
     25.4978	   30.00	   23.09	 -292.67	   19.12
     25.5312	   23.00	   23.09	 -299.66	   19.12
     25.5647	   27.00	   23.09	 -295.66	   19.12
     25.5981	   13.00	   23.09	 -309.66	   19.12
     25.6315	   18.00	   23.08	 -304.66	   19.11
     25.6649	   30.00	   23.08	 -292.65	   19.11
     25.6983	   21.00	   23.08	 -301.65	   19.11
     25.7318	   23.00	   23.07	 -299.65	   19.11
     25.7652	   17.00	   23.07	 -305.65	   19.10
     25.7986	   27.00	   23.07	 -295.64	   19.10
     25.8320	   25.00	   23.07	 -297.64	   19.10
     25.8655	   28.00	   23.06	 -294.64	   19.10
     25.8989	   25.00	   23.06	 -297.64	   19.09
     25.9323	   28.00	   23.06	 -294.63	   19.09
     25.9657	   27.00	   23.06	 -295.63	   19.09
     25.9991	   31.00	   23.05	 -291.63	   19.09
     26.0326	   15.00	   23.05	 -307.63	   19.08
     26.0660	   35.00	   23.05	 -287.62	   19.08
     26.0994	   16.00	   23.05	 -306.62	   19.08
     26.1328	   16.00	   23.04	 -306.62	   19.08
     26.1663	   21.00	   23.04	 -301.62	   19.07
     26.1997	   23.00	   23.04	 -299.61	   19.07
     26.2331	   22.00	   23.04	 -300.61	   19.07
     26.2665	   20.00	   23.03	 -302.61	   19.07
     26.2999	   31.00	   23.03	 -291.61	   19.06
     26.3334	   31.00	   23.03	 -291.60	   19.06
     26.3668	   35.00	   23.03	 -287.60	   19.06
     26.4002	   26.00	   23.02	 -296.60	   19.06
     26.4336	   42.00	   23.02	 -280.60	   19.05
     26.4671	   33.00	   23.02	 -289.59	   19.05
     26.5005	   21.00	   23.02	 -301.59	   19.05
     26.5339	   28.00	   23.01	 -294.59	   19.05
     26.5673	   12.00	   23.01	 -310.59	   19.04
     26.6008	   15.00	   23.01	 -307.58	   19.04
     26.6342	   25.00	   23.01	 -297.58	   19.04
     26.6676	   25.00	   23.00	 -297.58	   19.04
     26.7010	   30.00	   23.00	 -292.57	   19.03
     26.7344	   17.00	   23.00	 -305.57	   19.03
     26.7679	   27.00	   23.00	 -295.57	   19.03
     26.8013	   18.00	   22.99	 -304.57	   19.02
     26.8347	   22.00	   22.99	 -300.56	   19.02
     26.8681	   20.00	   22.99	 -302.56	   19.02
     26.9016	   20.00	   22.99	 -302.56	   19.02
     26.9350	   21.00	   22.98	 -301.56	   19.01
     26.9684	   21.00	   22.98	 -301.55	   19.01
     27.0018	   27.00	   22.98	 -295.55	   19.01
     27.0352	   31.00	   22.98	 -291.55	   19.01
     27.0687	   27.00	   22.97	 -295.55	   19.00
     27.1021	   20.00	   22.97	 -302.54	   19.00
     27.1355	   25.00	   23.18	 -297.75	   19.00
     27.1689	   25.00	   23.18	 -297.75	   19.00
     27.2024	   27.00	   23.18	 -295.75	   18.99
     27.2358	   18.00	   23.28	 -304.86	   18.99
     27.2692	   20.00	   23.29	 -302.86	   18.99
     27.3026	   18.00	   23.29	 -304.86	   18.99
     27.3360	   36.00	   23.29	 -286.87	   18.98
     27.3695	   18.00	   23.29	 -304.87	   18.98
     27.4029	   17.00	   23.30	 -305.87	   18.98
     27.4363	   23.00	   23.30	 -299.87	   18.98
     27.4697	   22.00	   23.30	 -300.88	   18.97
     27.5032	   17.00	   23.31	 -305.88	   18.97
     27.5366	   23.00	   23.31	 -299.88	   18.97
     27.5700	   13.00	   23.31	 -309.89	   18.97
     27.6034	   23.00	   23.32	 -299.89	   18.96
     27.6369	   12.00	   23.32	 -310.89	   18.96
     27.6703	   36.00	   23.32	 -286.90	   18.96
     27.7037	   18.00	   23.33	 -304.90	   18.96
     27.7371	   22.00	   23.33	 -300.91	   18.95
     27.7705	   20.00	   23.34	 -302.91	   18.95
     27.8040	   33.00	   23.34	 -289.92	   18.95
     27.8374	   28.00	   23.35	 -294.92	   18.95
     27.8708	   21.00	   23.35	 -301.92	   18.94
     27.9042	   15.00	   23.36	 -307.93	   18.94
     27.9377	   25.00	   23.36	 -297.94	   18.94
     27.9711	   18.00	   23.37	 -304.94	   18.94
     28.0045	   13.00	   23.37	 -309.95	   18.93
     28.0379	   22.00	   23.38	 -300.95	   18.93
     28.0713	   17.00	   23.38	 -305.96	   18.93
     28.1048	   22.00	   23.39	 -300.97	   18.93
     28.1382	   22.00	   23.40	 -300.97	   18.92
     28.1716	   18.00	   23.40	 -304.98	   18.92
     28.2050	   25.00	   23.41	 -297.99	   18.92
     28.2385	   21.00	   23.42	 -301.99	   18.91
     28.2719	   31.00	   23.43	 -292.00	   18.91
     28.3053	   26.00	   23.44	 -297.01	   18.91
     28.3387	   23.00	   23.44	 -300.02	   18.91
     28.3721	   23.00	   23.45	 -300.03	   18.90
     28.4056	   23.00	   23.46	 -300.04	   18.90
     28.4390	   27.00	   23.47	 -296.05	   18.90
     28.4724	   23.00	   23.48	 -300.06	   18.90
     28.5058	   25.00	   23.49	 -298.07	   18.89
     28.5393	   32.00	   23.50	 -291.08	   18.89
     28.5727	   27.00	   23.51	 -296.09	   18.89
     28.6061	   17.00	   23.52	 -306.10	   18.89
     28.6395	   30.00	   23.54	 -293.11	   18.88
     28.6729	   25.00	   23.55	 -298.12	   18.88
     28.7064	   22.00	   23.56	 -301.14	   18.88
     28.7398	   26.00	   23.58	 -297.15	   18.88
     28.7732	   22.00	   23.59	 -301.16	   18.87
     28.8066	   33.00	   23.60	 -290.18	   18.87
     28.8401	   23.00	   23.62	 -300.19	   18.87
     28.8735	   22.00	   23.64	 -301.21	   18.87
     28.9069	   27.00	   23.65	 -296.23	   18.86
     28.9403	   38.00	   23.67	 -285.24	   18.86
     28.9738	   26.00	   23.69	 -297.26	   18.86
     29.0072	   23.00	   23.71	 -300.28	   18.86
     29.0406	   25.00	   23.72	 -298.30	   18.85
     29.0740	   17.00	   23.74	 -306.32	   18.85
     29.1074	   18.00	   23.77	 -305.34	   18.85
     29.1409	   21.00	   23.79	 -302.36	   18.85
     29.1743	   21.00	   23.81	 -302.38	   18.84
     29.2077	   36.00	   23.83	 -287.41	   18.84
     29.2411	   22.00	   23.86	 -301.43	   18.84
     29.2746	   33.00	   23.89	 -290.46	   18.84
     29.3080	   17.00	   23.91	 -306.49	   18.83
     29.3414	   27.00	   23.94	 -296.52	   18.83
     29.3748	   23.00	   23.97	 -300.55	   18.83
     29.4082	   16.00	   24.00	 -307.58	   18.83
     29.4417	   17.00	   24.04	 -306.61	   18.82
     29.4751	   21.00	   24.07	 -302.64	   18.82
     29.5085	   18.00	   24.11	 -305.68	   18.82
     29.5419	   21.00	   24.14	 -302.72	   18.82
     29.5754	   22.00	   24.18	 -301.76	   18.81
     29.6088	   26.00	   24.23	 -297.80	   18.81
     29.6422	   25.00	   24.27	 -298.84	   18.81
     29.6756	   26.00	   24.32	 -297.89	   18.81
     29.7090	   22.00	   24.37	 -301.94	   18.80
     29.7425	   30.00	   24.42	 -293.99	   18.80
     29.7759	   28.00	   24.63	 -296.20	   18.80
     29.8093	   36.00	   24.69	 -288.26	   18.79
     29.8427	   27.00	   24.83	 -297.40	   18.79
     29.8762	   36.00	   24.90	 -288.47	   18.79
     29.9096	   30.00	   24.97	 -294.54	   18.79
     29.9430	   18.00	   25.04	 -306.62	   18.78
     29.9764	   26.00	   25.12	 -298.70	   18.78
     30.0098	   23.00	   25.21	 -301.78	   18.78
     30.0433	   27.00	   25.29	 -297.87	   18.78
     30.0767	   30.00	   25.39	 -294.96	   18.77
     30.1101	   27.00	   25.49	 -298.06	   18.77
     30.1435	   27.00	   25.59	 -298.17	   18.77
     30.1770	   35.00	   25.71	 -290.28	   18.77
     30.2104	   23.00	   25.83	 -302.40	   18.76
     30.2438	   18.00	   25.96	 -307.53	   18.76
     30.2772	   35.00	   26.10	 -290.67	   18.76
     30.3107	   28.00	   26.24	 -297.82	   18.76
     30.3441	   30.00	   26.40	 -295.97	   18.75
     30.3775	   32.00	   26.57	 -294.14	   18.75
     30.4109	   23.00	   26.75	 -303.33	   18.75
     30.4443	   31.00	   26.95	 -295.52	   18.75
     30.4778	   25.00	   27.16	 -301.74	   18.74
     30.5112	   27.00	   27.39	 -299.97	   18.74
     30.5446	   31.00	   27.64	 -296.21	   18.74
     30.5780	   28.00	   27.91	 -299.48	   18.74
     30.6115	   23.00	   28.21	 -304.78	   18.73
     30.6449	   35.00	   28.53	 -293.10	   18.73
     30.6783	   38.00	   28.88	 -290.45	   18.73
     30.7117	   25.00	   29.27	 -303.84	   18.73
     30.7451	   26.00	   29.69	 -303.26	   18.72
     30.7786	   23.00	   30.16	 -306.73	   18.72
     30.8120	   46.00	   30.68	 -284.26	   18.72
     30.8454	   41.00	   31.26	 -289.84	   18.72
     30.8788	   35.00	   31.91	 -296.48	   18.71
     30.9123	   30.00	   32.63	 -302.21	   18.71
     30.9457	   38.00	   33.45	 -295.03	   18.71
     30.9791	   43.00	   34.38	 -290.95	   18.71
     31.0125	   41.00	   35.43	 -294.00	   18.70
     31.0459	   31.00	   36.63	 -305.21	   18.70
     31.0794	   41.00	   38.02	 -296.60	   18.70
     31.1128	   43.00	   39.63	 -296.20	   18.70
     31.1462	   47.00	   41.51	 -294.08	   18.69
     31.1796	   38.00	   43.72	 -305.30	   18.69
     31.2131	   48.00	   46.35	 -297.93	   18.69
     31.2465	   46.00	   49.51	 -303.09	   18.69
     31.2799	   55.00	   53.35	 -297.93	   18.68
     31.3133	   60.00	   58.09	 -297.66	   18.68
     31.3468	   59.00	   64.03	 -304.61	   18.68
     31.3802	   77.00	   71.71	 -294.28	   18.67
     31.4136	  101.00	   82.02	 -280.59	   18.67
     31.4470	   79.00	   96.54	 -317.12	   18.67
     31.4804	  114.00	  118.00	 -303.57	   18.67
     31.5139	  141.00	  150.54	 -309.11	   18.66
     31.5473	  170.00	  199.71	 -329.29	   18.66
     31.5807	  214.00	  271.85	 -357.43	   18.66
     31.6141	  271.00	  369.97	 -398.54	   18.66
     31.6476	  454.00	  490.20	 -335.77	   18.65
     31.6810	  631.00	  609.54	 -278.11	   18.65
     31.7144	  788.00	  683.43	 -195.01	   18.65
     31.7478	  685.00	  683.46	 -298.04	   18.65
     31.7812	  570.00	  621.86	 -351.44	   18.64
     31.8147	  508.00	  521.19	 -312.77	   18.64
     31.8481	  351.00	  406.95	 -355.52	   18.64
     31.8815	  273.00	  304.46	 -331.04	   18.64
     31.9149	  178.00	  225.20	 -346.77	   18.63
     31.9484	  134.00	  168.91	 -334.48	   18.63
     31.9818	  108.00	  130.76	 -322.33	   18.63
     32.0152	  128.00	  105.37	 -276.94	   18.63
     32.0486	  111.00	   88.31	 -276.88	   18.62
     32.0820	   95.00	   76.45	 -281.02	   18.62
     32.1155	   90.00	   67.83	 -277.41	   18.62
     32.1489	   70.00	   61.30	 -290.88	   18.62
     32.1823	   72.00	   56.18	 -283.76	   18.61
     32.2157	   60.00	   52.08	 -291.65	   18.61
     32.2492	   48.00	   48.73	 -300.31	   18.61
     32.2826	   50.00	   45.97	 -295.54	   18.61
     32.3160	   55.00	   43.66	 -288.24	   18.60
     32.3494	   50.00	   41.73	 -291.30	   18.60
     32.3829	   50.00	   40.08	 -289.66	   18.60
     32.4163	   42.00	   38.68	 -296.25	   18.60
     32.4497	   47.00	   37.47	 -290.05	   18.59
     32.4831	   36.00	   36.43	 -300.01	   18.59
     32.5165	   27.00	   35.53	 -308.11	   18.59
     32.5500	   31.00	   34.75	 -303.32	   18.59
     32.5834	   37.00	   34.07	 -296.64	   18.58
     32.6168	   36.00	   33.47	 -297.04	   18.58
     32.6502	   40.00	   32.95	 -292.52	   18.58
     32.6837	   45.00	   32.49	 -287.07	   18.58
     32.7171	   40.00	   32.10	 -291.67	   18.57
     32.7505	   35.00	   31.75	 -296.32	   18.57
     32.7839	   33.00	   31.45	 -298.02	   18.57
     32.8173	   38.00	   31.19	 -292.76	   18.57
     32.8508	   30.00	   30.97	 -300.54	   18.56
     32.8842	   42.00	   30.78	 -288.35	   18.56
     32.9176	   35.00	   30.62	 -295.20	   18.56
     32.9510	   32.00	   30.50	 -298.07	   18.55
     32.9845	   42.00	   30.40	 -287.98	   18.55
     33.0179	   28.00	   30.33	 -301.91	   18.55
     33.0513	   35.00	   30.29	 -294.86	   18.55
     33.0847	   26.00	   30.27	 -303.85	   18.54
     33.1181	   18.00	   30.28	 -311.85	   18.54
     33.1516	   48.00	   30.31	 -281.89	   18.54
     33.1850	   37.00	   30.37	 -292.95	   18.54
     33.2184	   31.00	   30.46	 -299.03	   18.53
     33.2518	   51.00	   30.57	 -279.14	   18.53
     33.2853	   32.00	   30.71	 -298.29	   18.53
     33.3187	   33.00	   30.88	 -297.46	   18.53
     33.3521	   40.00	   31.09	 -290.66	   18.52
     33.3855	   42.00	   31.33	 -288.91	   18.52
