 ZnO   Chi2:  1.5926  CELL:    3.24998   3.24998   5.20703   90.0000   90.0000  120.0000   SPGR: P 63 m c               TEMP:      0.00
  1   2992     1.54060     1.54439     0.00000    -0.01330     0.00000    0
    48     0     1
       0.00000      15.00000
 2Theta	Yobs	Ycal	Yobs-Ycal	Backg	Posr	(hkl)	K
     20.0165	   16.00	   24.51	 -505.01	   18.48
     20.0499	   25.00	   24.51	 -496.01	   18.48
     20.0834	   27.00	   24.51	 -494.01	   18.48
     20.1168	   20.00	   24.51	 -501.01	   18.48
     20.1502	   16.00	   24.51	 -505.01	   18.48
     20.1836	   17.00	   24.51	 -504.01	   18.48
     20.2170	   20.00	   24.51	 -501.01	   18.48
     20.2505	   20.00	   24.51	 -501.01	   18.48
     20.2839	   20.00	   24.51	 -501.01	   18.48
     20.3173	   16.00	   24.51	 -505.01	   18.48
     20.3507	   27.00	   24.51	 -494.01	   18.47
     20.3842	   18.00	   24.51	 -503.01	   18.47
     20.4176	   22.00	   24.51	 -499.01	   18.47
     20.4510	   12.00	   24.51	 -509.01	   18.47
     20.4844	   23.00	   24.51	 -498.01	   18.47
     20.5179	   16.00	   24.51	 -505.01	   18.47
     20.5513	   27.00	   24.51	 -494.01	   18.47
     20.5847	   17.00	   24.51	 -504.01	   18.47
     20.6181	   21.00	   24.51	 -500.01	   18.47
     20.6515	   17.00	   24.51	 -504.01	   18.47
     20.6850	   17.00	   24.51	 -504.01	   18.47
     20.7184	   16.00	   24.51	 -505.01	   18.47
     20.7518	   20.00	   24.51	 -501.01	   18.47
     20.7852	   25.00	   24.51	 -496.01	   18.47
     20.8187	   20.00	   24.51	 -501.01	   18.47
     20.8521	   13.00	   24.51	 -508.01	   18.47
     20.8855	   16.00	   24.51	 -505.01	   18.47
     20.9189	   15.00	   24.51	 -506.01	   18.47
     20.9523	   26.00	   24.51	 -495.01	   18.47
     20.9858	   27.00	   24.51	 -494.01	   18.47
     21.0192	   30.00	   24.51	 -491.01	   18.47
     21.0526	   22.00	   24.51	 -499.01	   18.47
     21.0860	   17.00	   24.51	 -504.01	   18.47
     21.1195	   22.00	   24.51	 -499.01	   18.47
     21.1529	   20.00	   24.51	 -501.01	   18.47
     21.1863	   18.00	   24.51	 -503.01	   18.47
     21.2197	   12.00	   24.51	 -509.01	   18.47
     21.2531	   27.00	   24.51	 -494.01	   18.47
     21.2866	   15.00	   24.51	 -506.01	   18.47
     21.3200	   22.00	   24.51	 -499.01	   18.47
     21.3534	   13.00	   24.51	 -508.01	   18.47
     21.3868	   12.00	   24.51	 -509.01	   18.47
     21.4203	   12.00	   24.51	 -509.01	   18.47
     21.4537	   20.00	   24.51	 -501.01	   18.47
     21.4871	   15.00	   24.51	 -506.01	   18.47
     21.5205	   16.00	   24.51	 -505.01	   18.47
     21.5539	   18.00	   24.51	 -503.01	   18.47
     21.5874	   12.00	   24.51	 -509.01	   18.47
     21.6208	   23.00	   24.50	 -498.00	   18.47
     21.6542	   23.00	   24.50	 -498.00	   18.47
     21.6876	   25.00	   24.50	 -496.00	   18.47
     21.7211	   17.00	   24.50	 -504.00	   18.47
     21.7545	   23.00	   24.50	 -498.00	   18.47
     21.7879	   17.00	   24.50	 -504.00	   18.47
     21.8213	   25.00	   24.50	 -496.00	   18.47
     21.8548	   22.00	   24.50	 -499.00	   18.47
     21.8882	   22.00	   24.50	 -499.00	   18.47
     21.9216	   20.00	   24.50	 -501.00	   18.47
     21.9550	   23.00	   24.50	 -498.00	   18.47
     21.9884	   15.00	   24.50	 -506.00	   18.47
     22.0219	   20.00	   24.50	 -501.00	   18.47
     22.0553	   23.00	   24.50	 -498.00	   18.47
     22.0887	   18.00	   24.50	 -503.00	   18.47
     22.1221	   23.00	   24.50	 -498.00	   18.47
     22.1556	   23.00	   24.50	 -498.00	   18.47
     22.1890	   17.00	   24.50	 -504.00	   18.47
     22.2224	   18.00	   24.50	 -503.00	   18.47
     22.2558	   17.00	   24.50	 -504.00	   18.47
     22.2892	   23.00	   24.50	 -498.00	   18.47
     22.3227	   16.00	   24.50	 -505.00	   18.47
     22.3561	   13.00	   24.50	 -508.00	   18.47
     22.3895	   23.00	   24.50	 -498.00	   18.47
     22.4229	   30.00	   24.50	 -491.00	   18.47
     22.4564	   21.00	   24.50	 -500.00	   18.47
     22.4898	   13.00	   24.50	 -508.00	   18.47
     22.5232	   23.00	   24.50	 -498.00	   18.47
     22.5566	   15.00	   24.50	 -506.00	   18.47
     22.5900	   20.00	   24.50	 -501.00	   18.47
     22.6235	   18.00	   24.50	 -503.00	   18.47
     22.6569	   21.00	   24.50	 -500.00	   18.47
     22.6903	   25.00	   24.50	 -496.00	   18.47
     22.7237	   32.00	   24.50	 -489.00	   18.47
     22.7572	   28.00	   24.50	 -493.00	   18.47
     22.7906	   23.00	   24.50	 -498.00	   18.47
     22.8240	   25.00	   24.50	 -496.00	   18.47
     22.8574	   13.00	   24.50	 -508.00	   18.47
     22.8909	   18.00	   24.50	 -503.00	   18.47
     22.9243	   15.00	   24.50	 -506.00	   18.47
     22.9577	   21.00	   24.50	 -500.00	   18.47
     22.9911	   16.00	   24.50	 -505.00	   18.47
     23.0245	   26.00	   24.50	 -495.00	   18.47
     23.0580	   21.00	   24.50	 -500.00	   18.46
     23.0914	   20.00	   24.50	 -501.00	   18.46
     23.1248	   35.00	   24.50	 -486.00	   18.46
     23.1582	   13.00	   24.50	 -508.00	   18.46
     23.1917	   23.00	   24.50	 -498.00	   18.46
     23.2251	   16.00	   24.50	 -505.00	   18.46
     23.2585	   28.00	   24.50	 -493.00	   18.46
     23.2919	   17.00	   24.50	 -504.00	   18.46
     23.3253	   22.00	   24.50	 -499.00	   18.46
     23.3588	   21.00	   24.50	 -500.00	   18.46
     23.3922	    8.00	   24.50	 -513.00	   18.46
     23.4256	   20.00	   24.50	 -501.00	   18.46
     23.4590	   20.00	   24.50	 -501.00	   18.46
     23.4925	   21.00	   24.50	 -500.00	   18.46
     23.5259	   13.00	   24.50	 -508.00	   18.46
     23.5593	   12.00	   24.50	 -509.00	   18.46
     23.5927	   21.00	   24.50	 -500.00	   18.46
     23.6261	   17.00	   24.50	 -504.00	   18.46
     23.6596	   21.00	   24.50	 -500.00	   18.46
     23.6930	   32.00	   24.50	 -489.00	   18.46
     23.7264	   22.00	   24.50	 -499.00	   18.46
     23.7598	   21.00	   24.50	 -500.00	   18.46
     23.7933	   21.00	   24.50	 -500.00	   18.46
     23.8267	   27.00	   24.50	 -494.00	   18.46
     23.8601	   28.00	   24.50	 -493.00	   18.46
     23.8935	   13.00	   24.50	 -508.00	   18.46
     23.9269	   26.00	   24.50	 -495.00	   18.46
     23.9604	   23.00	   24.50	 -498.00	   18.46
     23.9938	   23.00	   24.50	 -498.00	   18.46
     24.0272	   26.00	   24.50	 -495.00	   18.46
     24.0606	   28.00	   24.50	 -493.00	   18.46
     24.0941	   18.00	   24.50	 -503.00	   18.46
     24.1275	   22.00	   24.50	 -499.00	   18.46
     24.1609	   22.00	   24.50	 -499.00	   18.46
     24.1943	   16.00	   24.50	 -505.00	   18.46
     24.2278	   28.00	   24.50	 -493.00	   18.46
     24.2612	   30.00	   24.50	 -491.00	   18.46
     24.2946	   26.00	   24.49	 -494.99	   18.46
     24.3280	   23.00	   24.49	 -497.99	   18.46
     24.3614	   22.00	   24.49	 -498.99	   18.46
     24.3949	   13.00	   24.49	 -507.99	   18.46
     24.4283	   13.00	   24.49	 -507.99	   18.46
     24.4617	   15.00	   24.49	 -505.99	   18.46
     24.4951	   25.00	   24.49	 -495.99	   18.46
     24.5286	   30.00	   24.49	 -490.99	   18.46
     24.5620	   20.00	   24.49	 -500.99	   18.46
     24.5954	   23.00	   24.49	 -497.99	   18.46
     24.6288	   17.00	   24.49	 -503.99	   18.46
     24.6622	   21.00	   24.49	 -499.99	   18.46
     24.6957	   18.00	   24.49	 -502.99	   18.46
     24.7291	   17.00	   24.49	 -503.99	   18.46
     24.7625	   26.00	   24.49	 -494.99	   18.46
     24.7959	   25.00	   24.49	 -495.99	   18.46
     24.8294	   18.00	   24.49	 -502.99	   18.46
     24.8628	   20.00	   24.49	 -500.99	   18.46
     24.8962	   21.00	   24.49	 -499.99	   18.46
     24.9296	   18.00	   24.49	 -502.99	   18.46
     24.9630	   15.00	   24.49	 -505.99	   18.46
     24.9965	   18.00	   24.49	 -502.99	   18.46
     25.0299	   17.00	   24.49	 -503.99	   18.46
     25.0633	   22.00	   24.49	 -498.99	   18.46
     25.0967	   31.00	   24.49	 -489.99	   18.46
     25.1302	   28.00	   24.49	 -492.99	   18.46
     25.1636	   16.00	   24.49	 -504.99	   18.46
     25.1970	   18.00	   24.49	 -502.99	   18.46
     25.2304	   22.00	   24.49	 -498.99	   18.46
     25.2639	   16.00	   24.49	 -504.99	   18.46
     25.2973	   26.00	   24.49	 -494.99	   18.46
     25.3307	   22.00	   24.49	 -498.99	   18.46
     25.3641	   21.00	   24.49	 -499.99	   18.46
     25.3975	   23.00	   24.49	 -497.99	   18.46
     25.4310	   22.00	   24.49	 -498.99	   18.46
     25.4644	   20.00	   24.49	 -500.99	   18.46
     25.4978	   28.00	   24.49	 -492.99	   18.46
     25.5312	   18.00	   24.49	 -502.99	   18.46
     25.5647	   16.00	   24.49	 -504.99	   18.46
     25.5981	   16.00	   24.49	 -504.99	   18.46
     25.6315	   18.00	   24.49	 -502.99	   18.46
     25.6649	   30.00	   24.49	 -490.99	   18.46
     25.6983	   20.00	   24.49	 -500.99	   18.46
     25.7318	   20.00	   24.49	 -500.99	   18.45
     25.7652	   27.00	   24.49	 -493.99	   18.45
     25.7986	   18.00	   24.49	 -502.99	   18.45
     25.8320	   23.00	   24.49	 -497.99	   18.45
     25.8655	   16.00	   24.49	 -504.99	   18.45
     25.8989	   15.00	   24.49	 -505.99	   18.45
     25.9323	   12.00	   24.49	 -508.99	   18.45
     25.9657	   20.00	   24.49	 -500.99	   18.45
     25.9991	   32.00	   24.49	 -488.99	   18.45
     26.0326	   25.00	   24.49	 -495.99	   18.45
     26.0660	   28.00	   24.49	 -492.99	   18.45
     26.0994	   17.00	   24.49	 -503.99	   18.45
     26.1328	   23.00	   24.49	 -497.99	   18.45
     26.1663	   21.00	   24.49	 -499.99	   18.45
     26.1997	   23.00	   24.49	 -497.99	   18.45
     26.2331	   16.00	   24.49	 -504.99	   18.45
     26.2665	   21.00	   24.49	 -499.99	   18.45
     26.2999	   17.00	   24.49	 -503.99	   18.45
     26.3334	   22.00	   24.49	 -498.99	   18.45
     26.3668	   22.00	   24.49	 -498.99	   18.45
     26.4002	   17.00	   24.49	 -503.99	   18.45
     26.4336	   25.00	   24.49	 -495.99	   18.45
     26.4671	   23.00	   24.49	 -497.99	   18.45
     26.5005	   22.00	   24.49	 -498.99	   18.45
     26.5339	   16.00	   24.49	 -504.99	   18.45
     26.5673	   20.00	   24.49	 -500.99	   18.45
     26.6008	   18.00	   24.49	 -502.99	   18.45
     26.6342	   28.00	   24.49	 -492.99	   18.45
     26.6676	   20.00	   24.49	 -500.99	   18.45
     26.7010	   15.00	   24.49	 -505.99	   18.45
     26.7344	   27.00	   24.49	 -493.99	   18.45
     26.7679	   23.00	   24.49	 -497.99	   18.45
     26.8013	   13.00	   24.49	 -507.99	   18.45
     26.8347	   26.00	   24.49	 -494.99	   18.45
     26.8681	   21.00	   24.49	 -499.99	   18.45
     26.9016	   25.00	   24.49	 -495.99	   18.45
     26.9350	   21.00	   24.49	 -499.99	   18.45
     26.9684	   17.00	   24.49	 -503.99	   18.45
     27.0018	   17.00	   24.48	 -503.98	   18.45
     27.0352	   18.00	   24.48	 -502.98	   18.45
     27.0687	   20.00	   24.48	 -500.98	   18.45
     27.1021	   21.00	   24.48	 -499.98	   18.45
     27.1355	   26.00	   24.48	 -494.98	   18.45
     27.1689	   12.00	   24.48	 -508.98	   18.45
     27.2024	   27.00	   24.48	 -493.98	   18.45
     27.2358	   22.00	   24.48	 -498.98	   18.45
     27.2692	   21.00	   24.48	 -499.98	   18.45
     27.3026	   26.00	   24.48	 -494.98	   18.45
     27.3360	   17.00	   24.48	 -503.98	   18.45
     27.3695	   28.00	   24.48	 -492.98	   18.45
     27.4029	   27.00	   24.48	 -493.98	   18.45
     27.4363	   11.00	   24.48	 -509.98	   18.45
     27.4697	   23.00	   24.48	 -497.98	   18.45
     27.5032	   21.00	   24.48	 -499.98	   18.45
     27.5366	   22.00	   24.48	 -498.98	   18.45
     27.5700	   18.00	   24.48	 -502.98	   18.45
     27.6034	   18.00	   24.48	 -502.98	   18.45
     27.6369	   25.00	   24.48	 -495.98	   18.45
     27.6703	   27.00	   24.48	 -493.98	   18.45
     27.7037	   20.00	   24.48	 -500.98	   18.45
     27.7371	   15.00	   24.48	 -505.98	   18.45
     27.7705	   16.00	   24.48	 -504.98	   18.45
     27.8040	   26.00	   24.48	 -494.98	   18.45
     27.8374	   25.00	   24.48	 -495.98	   18.45
     27.8708	   30.00	   24.48	 -490.98	   18.45
     27.9042	   20.00	   24.48	 -500.98	   18.45
     27.9377	   21.00	   24.48	 -499.98	   18.45
     27.9711	   22.00	   24.48	 -498.98	   18.45
     28.0045	   26.00	   24.48	 -494.98	   18.45
     28.0379	   21.00	   24.48	 -499.98	   18.45
     28.0713	   17.00	   24.48	 -503.98	   18.45
     28.1048	   16.00	   24.48	 -504.98	   18.45
     28.1382	   30.00	   24.48	 -490.98	   18.45
     28.1716	   22.00	   24.63	 -499.13	   18.45
     28.2050	   15.00	   24.64	 -506.14	   18.45
     28.2385	   18.00	   24.71	 -503.21	   18.45
     28.2719	    8.00	   24.72	 -513.22	   18.45
     28.3053	   18.00	   24.72	 -503.22	   18.45
     28.3387	   25.00	   24.73	 -496.23	   18.45
     28.3721	   17.00	   24.73	 -504.23	   18.45
     28.4056	   25.00	   24.74	 -496.24	   18.44
     28.4390	   16.00	   24.74	 -505.24	   18.44
     28.4724	   15.00	   24.75	 -506.25	   18.44
     28.5058	   16.00	   24.75	 -505.25	   18.44
     28.5393	   32.00	   24.76	 -489.26	   18.44
     28.5727	   16.00	   24.76	 -505.26	   18.44
     28.6061	   22.00	   24.77	 -499.27	   18.44
     28.6395	   25.00	   24.78	 -496.28	   18.44
     28.6729	   18.00	   24.78	 -503.28	   18.44
     28.7064	   20.00	   24.79	 -501.29	   18.44
     28.7398	   17.00	   24.80	 -504.30	   18.44
     28.7732	   27.00	   24.80	 -494.30	   18.44
     28.8066	   26.00	   24.81	 -495.31	   18.44
     28.8401	   20.00	   24.82	 -501.32	   18.44
     28.8735	   21.00	   24.83	 -500.33	   18.44
     28.9069	   27.00	   24.83	 -494.33	   18.44
     28.9403	   26.00	   24.84	 -495.34	   18.44
     28.9738	   21.00	   24.85	 -500.35	   18.44
     29.0072	   17.00	   24.86	 -504.36	   18.44
     29.0406	   18.00	   24.87	 -503.37	   18.44
     29.0740	   25.00	   24.88	 -496.38	   18.44
     29.1074	   21.00	   24.89	 -500.39	   18.44
     29.1409	   25.00	   24.90	 -496.40	   18.44
     29.1743	   18.00	   24.91	 -503.41	   18.44
     29.2077	   25.00	   24.92	 -496.42	   18.44
     29.2411	   25.00	   24.93	 -496.43	   18.44
     29.2746	   30.00	   24.94	 -491.44	   18.44
     29.3080	   32.00	   24.96	 -489.46	   18.44
     29.3414	   18.00	   24.97	 -503.47	   18.44
     29.3748	   28.00	   24.98	 -493.48	   18.44
     29.4082	   12.00	   25.00	 -509.50	   18.44
     29.4417	   22.00	   25.01	 -499.51	   18.44
     29.4751	   22.00	   25.03	 -499.53	   18.44
     29.5085	   32.00	   25.04	 -489.54	   18.44
     29.5419	   37.00	   25.06	 -484.56	   18.44
     29.5754	   17.00	   25.08	 -504.58	   18.44
     29.6088	   21.00	   25.10	 -500.60	   18.44
     29.6422	   17.00	   25.12	 -504.62	   18.44
     29.6756	   17.00	   25.14	 -504.64	   18.44
     29.7090	   28.00	   25.16	 -493.66	   18.44
     29.7425	   22.00	   25.18	 -499.68	   18.44
     29.7759	   27.00	   25.21	 -494.71	   18.44
     29.8093	   26.00	   25.23	 -495.73	   18.44
     29.8427	   22.00	   25.26	 -499.76	   18.44
     29.8762	   21.00	   25.28	 -500.78	   18.44
     29.9096	   21.00	   25.31	 -500.81	   18.44
     29.9430	   23.00	   25.34	 -498.84	   18.44
     29.9764	   17.00	   25.38	 -504.88	   18.44
     30.0098	   21.00	   25.41	 -500.91	   18.44
     30.0433	   23.00	   25.45	 -498.95	   18.44
     30.0767	   22.00	   25.49	 -499.99	   18.44
     30.1101	   25.00	   25.53	 -497.03	   18.44
     30.1435	   22.00	   25.57	 -500.07	   18.44
     30.1770	   17.00	   25.62	 -505.12	   18.44
     30.2104	   27.00	   25.66	 -495.16	   18.44
     30.2438	   23.00	   25.72	 -499.22	   18.44
     30.2772	   28.00	   25.77	 -494.27	   18.44
     30.3107	   23.00	   25.83	 -499.33	   18.44
     30.3441	   28.00	   25.90	 -494.40	   18.44
     30.3775	   26.00	   25.96	 -496.46	   18.44
     30.4109	   25.00	   26.04	 -497.54	   18.44
     30.4443	   22.00	   26.12	 -500.62	   18.44
     30.4778	   25.00	   26.20	 -497.70	   18.44
     30.5112	   31.00	   26.29	 -491.79	   18.44
     30.5446	   23.00	   26.39	 -499.89	   18.44
     30.5780	   23.00	   26.50	 -500.00	   18.44
     30.6115	   35.00	   26.62	 -488.12	   18.44
     30.6449	   32.00	   26.75	 -491.25	   18.44
     30.6783	   36.00	   26.89	 -487.39	   18.44
     30.7117	   27.00	   27.04	 -496.54	   18.44
     30.7451	   36.00	   27.21	 -487.71	   18.44
     30.7786	   28.00	   27.39	 -495.89	   18.44
     30.8120	   23.00	   27.71	 -501.21	   18.44
     30.8454	   26.00	   27.94	 -498.44	   18.44
     30.8788	   33.00	   28.25	 -491.75	   18.44
     30.9123	   32.00	   28.54	 -493.04	   18.44
     30.9457	   47.00	   28.86	 -478.36	   18.44
     30.9791	   18.00	   29.22	 -507.72	   18.44
     31.0125	   41.00	   29.62	 -485.12	   18.44
     31.0459	   38.00	   30.09	 -488.59	   18.44
     31.0794	   41.00	   30.62	 -486.12	   18.44
     31.1128	   32.00	   31.23	 -495.73	   18.43
     31.1462	   27.00	   31.94	 -501.44	   18.43
     31.1796	   31.00	   32.77	 -498.27	   18.43
     31.2131	   26.00	   33.75	 -504.25	   18.43
     31.2465	   26.00	   34.92	 -505.42	   18.43
     31.2799	   32.00	   36.32	 -500.82	   18.43
     31.3133	   28.00	   38.03	 -506.53	   18.43
     31.3468	   41.00	   40.15	 -495.65	   18.43
     31.3802	   45.00	   42.80	 -494.30	   18.43
     31.4136	   33.00	   46.19	 -509.69	   18.43
     31.4470	   46.00	   50.62	 -501.12	   18.43
     31.4804	   61.00	   56.58	 -492.08	   18.43
     31.5139	   80.00	   65.07	 -481.57	   18.43
     31.5473	   89.00	   78.77	 -486.27	   18.43
     31.5807	  130.00	  105.47	 -471.97	   18.43
     31.6141	  174.00	  164.22	 -486.72	   18.43
     31.6476	  268.00	  287.32	 -515.82	   18.43
     31.6810	  457.00	  502.59	 -542.09	   18.43
     31.7144	  767.00	  790.65	 -520.15	   18.43
     31.7478	 1101.00	 1032.40	 -427.90	   18.43
     31.7812	 1105.00	 1072.47	 -463.97	   18.43
     31.8147	  986.00	  946.46	 -456.96	   18.43
     31.8481	  711.00	  735.06	 -520.56	   18.43
     31.8815	  458.00	  492.99	 -531.49	   18.43
     31.9149	  281.00	  298.73	 -514.23	   18.43
     31.9484	  145.00	  176.96	 -528.46	   18.43
     31.9818	  101.00	  112.53	 -508.03	   18.43
     32.0152	   80.00	   81.52	 -498.02	   18.43
     32.0486	   40.00	   66.02	 -522.52	   18.43
     32.0820	   57.00	   57.00	 -496.50	   18.43
     32.1155	   38.00	   50.90	 -509.40	   18.43
     32.1489	   41.00	   46.43	 -501.93	   18.43
     32.1823	   37.00	   43.03	 -502.53	   18.43
     32.2157	   41.00	   40.38	 -495.88	   18.43
     32.2492	   46.00	   38.28	 -488.78	   18.43
     32.2826	   36.00	   36.58	 -497.08	   18.43
     32.3160	   37.00	   35.19	 -494.69	   18.43
     32.3494	   40.00	   34.04	 -490.54	   18.43
     32.3829	   38.00	   33.08	 -491.58	   18.43
     32.4163	   38.00	   32.27	 -490.77	   18.43
     32.4497	   32.00	   31.58	 -496.08	   18.43
     32.4831	   22.00	   30.99	 -505.49	   18.43
     32.5165	   42.00	   30.49	 -484.99	   18.43
     32.5500	   17.00	   30.05	 -509.55	   18.43
     32.5834	   28.00	   29.67	 -498.17	   18.43
     32.6168	   33.00	   29.61	 -493.11	   18.43
     32.6502	   27.00	   29.33	 -498.83	   18.43
     32.6837	   22.00	   29.08	 -503.58	   18.43
     32.7171	   40.00	   29.00	 -485.50	   18.43
     32.7505	   23.00	   28.81	 -502.31	   18.43
     32.7839	   25.00	   28.64	 -500.14	   18.43
     32.8173	   40.00	   28.50	 -485.00	   18.43
     32.8508	   25.00	   28.38	 -499.88	   18.43
     32.8842	   35.00	   28.27	 -489.77	   18.43
     32.9176	   26.00	   28.18	 -498.68	   18.43
     32.9510	   16.00	   28.11	 -508.61	   18.43
     32.9845	   27.00	   28.05	 -497.55	   18.43
     33.0179	   22.00	   28.00	 -502.50	   18.43
     33.0513	   17.00	   27.96	 -507.46	   18.43
     33.0847	   31.00	   27.94	 -493.44	   18.43
     33.1181	   30.00	   27.93	 -494.43	   18.43
     33.1516	   31.00	   27.93	 -493.43	   18.43
     33.1850	   31.00	   27.94	 -493.44	   18.43
     33.2184	   31.00	   27.96	 -493.46	   18.43
     33.2518	   27.00	   27.99	 -497.49	   18.43
     33.2853	   33.00	   28.04	 -491.54	   18.43
     33.3187	   25.00	   28.10	 -499.60	   18.43
     33.3521	   31.00	   28.17	 -493.67	   18.43
     33.3855	   26.00	   28.26	 -498.76	   18.43
