 Nd hydroxide   Chi2:  2.6868  CELL:    6.42555   6.42555   3.74098   90.0000   90.0000  120.0000   SPGR: P 63/m                 TEMP:      0.00
  1   2693     1.54060     1.54439     0.00000    -0.03175     0.00000    0
   182     0     1
       0.00000      14.00000
 2Theta	Yobs	Ycal	Yobs-Ycal	Backg	Posr	(hkl)	K
     10.0098	  258.00	  115.92	 -292.75	  112.97
     10.0432	  266.00	  115.77	 -292.75	  112.82
     10.0767	  243.00	  115.61	 -292.75	  112.67
     10.1101	  266.00	  115.46	 -292.75	  112.52
     10.1435	  245.00	  115.31	 -292.75	  112.37
     10.1769	  243.00	  115.16	 -292.75	  112.21
     10.2103	  265.00	  115.01	 -292.75	  112.06
     10.2438	  263.00	  114.86	 -292.75	  111.91
     10.2772	  242.00	  114.71	 -292.75	  111.76
     10.3106	  256.00	  114.55	 -292.75	  111.61
     10.3440	  240.00	  114.40	 -292.75	  111.46
     10.3775	  253.00	  114.25	 -292.75	  111.31
     10.4109	  229.00	  114.10	 -292.75	  111.16
     10.4443	  269.00	  113.95	 -292.75	  111.01
     10.4777	  235.00	  113.80	 -292.75	  110.86
     10.5111	  246.00	  113.65	 -292.75	  110.71
     10.5446	  221.00	  113.50	 -292.75	  110.56
     10.5780	  245.00	  113.35	 -292.75	  110.41
     10.6114	  236.00	  113.20	 -292.75	  110.26
     10.6448	  216.00	  113.05	 -292.75	  110.11
     10.6783	  250.00	  112.90	 -292.75	  109.96
     10.7117	  257.00	  112.76	 -292.75	  109.81
     10.7451	  242.00	  112.61	 -292.75	  109.66
     10.7785	  227.00	  112.46	 -292.75	  109.51
     10.8120	  247.00	  112.31	 -292.75	  109.36
     10.8454	  248.00	  112.16	 -292.75	  109.22
     10.8788	  231.00	  112.01	 -292.75	  109.07
     10.9122	  245.00	  111.86	 -292.75	  108.92
     10.9456	  226.00	  111.72	 -292.75	  108.77
     10.9791	  233.00	  111.57	 -292.75	  108.62
     11.0125	  232.00	  111.42	 -292.75	  108.47
     11.0459	  249.00	  111.27	 -292.75	  108.33
     11.0793	  231.00	  111.13	 -292.75	  108.18
     11.1128	  218.00	  110.98	 -292.75	  108.03
     11.1462	  243.00	  110.83	 -292.75	  107.89
     11.1796	  216.00	  110.68	 -292.75	  107.74
     11.2130	  222.00	  110.54	 -292.75	  107.59
     11.2464	  220.00	  110.39	 -292.75	  107.45
     11.2799	  219.00	  110.24	 -292.75	  107.30
     11.3133	  211.00	  110.10	 -292.75	  107.15
     11.3467	  190.00	  109.95	 -292.75	  107.01
     11.3801	  234.00	  109.81	 -292.75	  106.86
     11.4136	  238.00	  109.66	 -292.75	  106.71
     11.4470	  183.00	  109.51	 -292.75	  106.57
     11.4804	  202.00	  109.37	 -292.75	  106.42
     11.5138	  246.00	  109.22	 -292.75	  106.28
     11.5472	  220.00	  109.08	 -292.75	  106.13
     11.5807	  203.00	  108.93	 -292.75	  105.99
     11.6141	  208.00	  108.79	 -292.75	  105.84
     11.6475	  189.00	  108.64	 -292.75	  105.70
     11.6809	  232.00	  108.50	 -292.75	  105.55
     11.7144	  208.00	  108.35	 -292.75	  105.41
     11.7478	  202.00	  108.21	 -292.75	  105.26
     11.7812	  217.00	  108.07	 -292.75	  105.12
     11.8146	  222.00	  107.92	 -292.75	  104.98
     11.8481	  216.00	  107.78	 -292.75	  104.83
     11.8815	  194.00	  107.63	 -292.75	  104.69
     11.9149	  196.00	  107.49	 -292.75	  104.54
     11.9483	  206.00	  107.35	 -292.75	  104.40
     11.9817	  213.00	  107.20	 -292.75	  104.26
     12.0152	  212.00	  107.06	 -292.75	  104.11
     12.0486	  219.00	  106.92	 -292.75	  103.97
     12.0820	  218.00	  106.77	 -292.75	  103.83
     12.1154	  169.00	  106.63	 -292.75	  103.68
     12.1489	  191.00	  106.49	 -292.75	  103.54
     12.1823	  199.00	  106.35	 -292.75	  103.40
     12.2157	  211.00	  106.20	 -292.75	  103.26
     12.2491	  178.00	  106.06	 -292.75	  103.12
     12.2825	  194.00	  105.92	 -292.75	  102.97
     12.3160	  215.00	  105.78	 -292.75	  102.83
     12.3494	  220.00	  105.64	 -292.75	  102.69
     12.3828	  189.00	  105.49	 -292.75	  102.55
     12.4162	  184.00	  105.35	 -292.75	  102.41
     12.4497	  209.00	  105.21	 -292.75	  102.27
     12.4831	  209.00	  105.07	 -292.75	  102.12
     12.5165	  178.00	  104.93	 -292.75	  101.98
     12.5499	  184.00	  104.79	 -292.75	  101.84
     12.5833	  191.00	  104.65	 -292.75	  101.70
     12.6168	  179.00	  104.51	 -292.75	  101.56
     12.6502	  202.00	  104.37	 -292.75	  101.42
     12.6836	  203.00	  104.23	 -292.75	  101.28
     12.7170	  186.00	  104.09	 -292.75	  101.14
     12.7505	  189.00	  103.95	 -292.75	  101.00
     12.7839	  190.00	  103.81	 -292.75	  100.86
     12.8173	  185.00	  103.67	 -292.75	  100.72
     12.8507	  209.00	  103.53	 -292.75	  100.58
     12.8841	  199.00	  103.39	 -292.75	  100.44
     12.9176	  194.00	  103.25	 -292.75	  100.30
     12.9510	  168.00	  103.11	 -292.75	  100.16
     12.9844	  176.00	  102.97	 -292.75	  100.03
     13.0178	  200.00	  102.83	 -292.75	   99.89
     13.0513	  175.00	  102.69	 -292.75	   99.75
     13.0847	  182.00	  102.56	 -292.75	   99.61
     13.1181	  198.00	  102.42	 -292.75	   99.47
     13.1515	  206.00	  102.28	 -292.75	   99.33
     13.1850	  169.00	  102.14	 -292.75	   99.20
     13.2184	  168.00	  102.00	 -292.75	   99.06
     13.2518	  185.00	  101.87	 -292.75	   98.92
     13.2852	  183.00	  101.73	 -292.75	   98.78
     13.3186	  177.00	  101.59	 -292.75	   98.65
     13.3521	  205.00	  101.45	 -292.75	   98.51
     13.3855	  184.00	  101.32	 -292.75	   98.37
     13.4189	  176.00	  101.18	 -292.75	   98.23
     13.4523	  184.00	  101.04	 -292.75	   98.10
     13.4858	  164.00	  100.91	 -292.75	   97.96
     13.5192	  179.00	  100.77	 -292.75	   97.82
     13.5526	  185.00	  100.63	 -292.75	   97.69
     13.5860	  175.00	  100.50	 -292.75	   97.55
     13.6194	  178.00	  100.36	 -292.75	   97.42
     13.6529	  158.00	  100.23	 -292.75	   97.28
     13.6863	  199.00	  100.09	 -292.75	   97.14
     13.7197	  157.00	   99.95	 -292.75	   97.01
     13.7531	  179.00	   99.82	 -292.75	   96.87
     13.7866	  172.00	   99.68	 -292.75	   96.74
     13.8200	  189.00	   99.55	 -292.75	   96.60
     13.8534	  167.00	   99.41	 -292.75	   96.47
     13.8868	  166.00	   99.28	 -292.75	   96.33
     13.9202	  181.00	   99.14	 -292.75	   96.20
     13.9537	  186.00	   99.01	 -292.75	   96.06
     13.9871	  172.00	   98.87	 -292.75	   95.93
     14.0205	  180.00	  108.39	 -221.14	   95.79
     14.0539	  164.00	  108.61	 -237.36	   95.66
     14.0874	  150.00	  108.84	 -251.59	   95.53
     14.1208	  165.00	  109.10	 -236.85	   95.39
     14.1542	  161.00	  109.38	 -241.13	   95.26
     14.1876	  155.00	  109.68	 -247.43	   95.12
     14.2211	  141.00	  110.01	 -261.76	   94.99
     14.2545	  181.00	  110.36	 -222.11	   94.86
     14.2879	  171.00	  110.75	 -232.50	   94.72
     14.3213	  188.00	  111.17	 -215.92	   94.59
     14.3547	  175.00	  111.62	 -229.37	   94.46
     14.3882	  175.00	  112.12	 -229.87	   94.33
     14.4216	  175.00	  112.65	 -230.40	   94.19
     14.4550	  138.00	  113.23	 -267.98	   94.06
     14.4884	  152.00	  113.86	 -254.61	   93.93
     14.5219	  180.00	  114.55	 -227.30	   93.80
     14.5553	  184.00	  115.30	 -224.05	   93.66
     14.5887	  173.00	  116.11	 -235.86	   93.53
     14.6221	  190.00	  117.00	 -219.75	   93.40
     14.6555	  154.00	  117.97	 -256.72	   93.27
     14.6890	  175.00	  119.02	 -236.77	   93.14
     14.7224	  179.00	  120.18	 -233.93	   93.01
     14.7558	  178.00	  121.45	 -236.20	   92.87
     14.7892	  181.00	  122.83	 -234.58	   92.74
     14.8227	  172.00	  124.36	 -245.11	   92.61
     14.8561	  156.00	  126.04	 -262.79	   92.48
     14.8895	  170.00	  127.90	 -250.65	   92.35
     14.9229	  161.00	  129.95	 -261.70	   92.22
     14.9563	  154.00	  132.23	 -270.98	   92.09
     14.9898	  178.00	  134.76	 -249.51	   91.96
     15.0232	  185.00	  137.58	 -245.33	   91.83
     15.0566	  170.00	  140.74	 -263.49	   91.70
     15.0900	  171.00	  144.28	 -266.03	   91.57
     15.1235	  170.00	  148.27	 -271.02	   91.44
     15.1569	  163.00	  152.77	 -282.52	   91.31
     15.1903	  178.00	  157.89	 -272.64	   91.18
     15.2237	  194.00	  163.72	 -262.47	   91.05
     15.2571	  167.00	  170.40	 -296.15	   90.92
     15.2906	  195.00	  178.10	 -275.85	   90.80
     15.3240	  185.00	  187.03	 -294.78	   90.67
     15.3574	  192.00	  197.43	 -298.18	   90.54
     15.3908	  236.00	  209.66	 -266.41	   90.41
     15.4243	  223.00	  224.10	 -293.85	   90.28
     15.4577	  256.00	  241.29	 -278.04	   90.15
     15.4911	  226.00	  261.89	 -328.64	   90.03
     15.5245	  253.00	  286.70	 -326.45	   89.90
     15.5580	  271.00	  316.71	 -338.46	   89.77
     15.5914	  298.00	  353.10	 -347.85	   89.64
     15.6248	  313.00	  397.19	 -376.94	   89.51
     15.6582	  328.00	  450.36	 -415.11	   89.39
     15.6916	  365.00	  513.68	 -441.43	   89.26
     15.7251	  426.00	  587.36	 -454.11	   89.13
     15.7585	  515.00	  669.55	 -447.30	   89.01
     15.7919	  554.00	  754.90	 -493.65	   88.88
     15.8253	  675.00	  833.31	 -451.06	   88.75
     15.8588	  761.00	  890.86	 -422.61	   88.63
     15.8922	  814.00	  914.25	 -393.00	   88.50
     15.9256	  785.00	  897.37	 -405.12	   88.37
     15.9590	  692.00	  844.76	 -445.51	   88.25
     15.9924	  596.00	  768.91	 -465.66	   88.12
     16.0259	  562.00	  683.90	 -414.65	   88.00
     16.0593	  420.00	  600.53	 -473.28	   87.87
     16.0927	  373.00	  524.95	 -444.70	   87.74
     16.1261	  328.00	  459.50	 -424.25	   87.62
     16.1596	  318.00	  404.30	 -379.05	   87.49
     16.1930	  273.00	  358.39	 -378.14	   87.37
     16.2264	  274.00	  320.43	 -339.18	   87.24
     16.2598	  252.00	  289.08	 -329.83	   87.12
     16.2932	  219.00	  263.14	 -336.89	   86.99
     16.3267	  212.00	  241.57	 -322.32	   86.87
     16.3601	  226.00	  223.55	 -290.30	   86.75
     16.3935	  184.00	  208.38	 -317.13	   86.62
     16.4269	  179.00	  195.53	 -309.28	   86.50
     16.4604	  162.00	  184.56	 -315.31	   86.37
     16.4938	  180.00	  175.13	 -287.88	   86.25
     16.5272	  169.00	  166.97	 -290.72	   86.13
     16.5606	  139.00	  159.86	 -313.61	   86.00
     16.5941	  154.00	  153.63	 -292.38	   85.88
     16.6275	  167.00	  148.14	 -273.89	   85.76
     16.6609	  135.00	  143.27	 -301.02	   85.63
     16.6943	  148.00	  138.94	 -283.69	   85.51
     16.7277	  135.00	  135.07	 -292.82	   85.39
     16.7612	  159.00	  131.60	 -265.35	   85.26
     16.7946	  162.00	  128.46	 -259.21	   85.14
     16.8280	  122.00	  125.63	 -296.38	   85.02
     16.8614	  141.00	  123.06	 -274.81	   84.90
     16.8949	  137.00	  120.71	 -276.46	   84.78
     16.9283	  137.00	  118.57	 -274.32	   84.65
     16.9617	  131.00	  116.60	 -278.35	   84.53
     16.9951	  140.00	  114.79	 -267.54	   84.41
     17.0285	  121.00	  113.13	 -284.88	   84.29
     17.0620	  145.00	  111.59	 -259.34	   84.17
     17.0954	  125.00	  110.16	 -277.91	   84.05
     17.1288	  119.00	  108.83	 -282.58	   83.92
     17.1622	  124.00	  107.60	 -276.35	   83.80
     17.1957	  135.00	  106.44	 -264.19	   83.68
     17.2291	  104.00	  105.37	 -294.12	   83.56
     17.2625	  128.00	  104.35	 -269.10	   83.44
     17.2959	  138.00	  103.40	 -258.15	   83.32
     17.3293	  113.00	  102.51	 -282.26	   83.20
     17.3628	  121.00	  101.67	 -273.42	   83.08
     17.3962	  130.00	  100.87	 -263.62	   82.96
     17.4296	  105.00	  100.12	 -287.87	   82.84
     17.4630	  125.00	   99.40	 -267.15	   82.72
     17.4965	  113.00	   98.72	 -278.47	   82.60
     17.5299	  106.00	   98.08	 -284.83	   82.48
     17.5633	  126.00	   97.46	 -264.21	   82.36
     17.5967	  110.00	   96.88	 -279.63	   82.24
     17.6301	  117.00	   96.32	 -272.07	   82.12
     17.6636	  111.00	   95.79	 -277.54	   82.00
     17.6970	   96.00	   95.27	 -292.02	   81.88
     17.7304	  103.00	   94.78	 -284.53	   81.77
     17.7638	  115.00	   94.31	 -272.06	   81.65
     17.7973	  108.00	   93.86	 -278.61	   81.53
     17.8307	  128.00	   93.42	 -258.17	   81.41
     17.8641	  109.00	   93.00	 -276.75	   81.29
     17.8975	  116.00	   92.60	 -269.35	   81.17
     17.9310	   83.00	   92.21	 -301.96	   81.06
     17.9644	  114.00	   91.83	 -270.58	   80.94
     17.9978	   96.00	   91.46	 -288.21	   80.82
     18.0312	   91.00	   91.11	 -292.86	   80.70
     18.0646	   96.00	   90.76	 -287.51	   80.59
     18.0981	   99.00	   90.43	 -284.18	   80.47
     18.1315	  109.00	   90.11	 -273.86	   80.35
     18.1649	  108.00	   89.79	 -274.54	   80.24
     18.1983	   87.00	   89.49	 -295.24	   80.12
     18.2318	  126.00	   89.19	 -255.94	   80.00
     18.2652	  102.00	   88.90	 -279.65	   79.89
     18.2986	   97.00	   88.62	 -284.37	   79.77
     18.3320	   92.00	   88.34	 -289.09	   79.65
     18.3654	   97.00	   88.07	 -283.82	   79.54
     18.3989	  106.00	   87.81	 -274.56	   79.42
     18.4323	   88.00	   87.55	 -292.30	   79.30
     18.4657	  111.00	   87.30	 -269.05	   79.19
     18.4991	  103.00	   87.27	 -277.02	   79.07
     18.5326	  101.00	   87.03	 -278.78	   78.96
     18.5660	   77.00	   86.91	 -302.66	   78.84
     18.5994	   95.00	   86.68	 -284.43	   78.73
     18.6328	   91.00	   86.45	 -288.20	   78.61
     18.6662	  100.00	   86.23	 -278.98	   78.50
     18.6997	   95.00	   86.01	 -283.76	   78.38
     18.7331	  110.00	   85.80	 -268.55	   78.27
     18.7665	  102.00	   85.59	 -276.34	   78.15
     18.7999	   84.00	   85.39	 -294.14	   78.04
     18.8334	   92.00	   85.18	 -285.93	   77.92
     18.8668	   83.00	   84.98	 -294.73	   77.81
     18.9002	   91.00	   84.79	 -286.54	   77.70
     18.9336	   74.00	   84.59	 -303.34	   77.58
     18.9671	   84.00	   84.40	 -293.15	   77.47
     19.0005	   84.00	   84.21	 -292.96	   77.36
     19.0339	   94.00	   84.03	 -282.78	   77.24
     19.0673	   88.00	   83.85	 -288.60	   77.13
     19.1007	   86.00	   83.67	 -290.42	   77.02
     19.1342	  114.00	   83.49	 -262.24	   76.90
     19.1676	   75.00	   83.31	 -301.06	   76.79
     19.2010	   66.00	   83.14	 -309.89	   76.68
     19.2344	  103.00	   82.97	 -272.72	   76.56
     19.2679	   84.00	   82.80	 -291.55	   76.45
     19.3013	   85.00	   82.63	 -290.38	   76.34
     19.3347	   83.00	   82.46	 -292.21	   76.23
     19.3681	  100.00	   82.30	 -275.05	   76.12
     19.4015	   98.00	   82.14	 -276.89	   76.00
     19.4350	   92.00	   81.98	 -282.73	   75.89
     19.4684	  101.00	   82.18	 -273.93	   75.78
     19.5018	   86.00	   82.02	 -288.77	   75.67
     19.5352	   89.00	   82.05	 -285.80	   75.56
     19.5687	   87.00	   81.90	 -287.65	   75.45
     19.6021	   98.00	   81.75	 -276.50	   75.33
     19.6355	   87.00	   81.60	 -287.35	   75.22
     19.6689	   95.00	   81.45	 -279.20	   75.11
     19.7023	   88.00	   81.31	 -286.06	   75.00
     19.7358	  102.00	   81.16	 -271.91	   74.89
     19.7692	   74.00	   81.02	 -299.77	   74.78
     19.8026	   75.00	   80.88	 -298.63	   74.67
     19.8360	   82.00	   80.74	 -291.49	   74.56
     19.8695	  103.00	   80.60	 -270.35	   74.45
     19.9029	   85.00	   80.46	 -288.21	   74.34
     19.9363	   90.00	   80.33	 -283.08	   74.23
     19.9697	   85.00	   80.19	 -287.94	   74.12
     20.0032	   89.00	   80.06	 -283.81	   74.01
     20.0366	   81.00	   79.93	 -291.68	   73.90
     20.0700	   71.00	   79.79	 -301.54	   73.79
     20.1034	   69.00	   79.66	 -303.41	   73.68
     20.1368	   91.00	   79.53	 -281.28	   73.57
     20.1703	   94.00	   79.40	 -278.15	   73.46
     20.2037	   94.00	   79.27	 -278.02	   73.36
     20.2371	   81.00	   79.15	 -290.90	   73.25
     20.2705	   81.00	   79.02	 -290.77	   73.14
     20.3040	   76.00	   78.89	 -295.64	   73.03
     20.3374	   77.00	   78.77	 -294.52	   72.92
     20.3708	   91.00	   78.64	 -280.39	   72.81
     20.4042	   87.00	   78.52	 -284.27	   72.70
     20.4376	   82.00	   78.40	 -289.15	   72.60
     20.4711	   73.00	   78.28	 -298.03	   72.49
     20.5045	   78.00	   78.16	 -292.91	   72.38
     20.5379	   70.00	   78.04	 -300.79	   72.27
     20.5713	   58.00	   77.92	 -312.67	   72.17
     20.6048	   77.00	   77.80	 -293.55	   72.06
     20.6382	   81.00	   77.68	 -289.43	   71.95
     20.6716	   76.00	   77.56	 -294.31	   71.85
     20.7050	   78.00	   77.45	 -292.20	   71.74
     20.7384	   71.00	   77.33	 -299.08	   71.63
     20.7719	   74.00	   77.22	 -295.97	   71.53
     20.8053	   84.00	   77.10	 -285.85	   71.42
     20.8387	   83.00	   76.99	 -286.74	   71.31
     20.8721	   87.00	   76.88	 -282.63	   71.21
     20.9056	   79.00	   76.76	 -290.51	   71.10
     20.9390	   76.00	   76.65	 -293.40	   70.99
     20.9724	   70.00	   76.54	 -299.29	   70.89
     21.0058	   69.00	   76.43	 -300.18	   70.78
     21.0392	   68.00	   76.32	 -301.07	   70.68
     21.0727	   79.00	   76.21	 -289.96	   70.57
     21.1061	   76.00	   76.10	 -292.85	   70.47
     21.1395	   60.00	   76.00	 -308.75	   70.36
     21.1729	   74.00	   75.89	 -294.64	   70.26
     21.2064	   85.00	   75.78	 -283.53	   70.15
     21.2398	   68.00	   75.68	 -300.43	   70.05
     21.2732	   64.00	   75.57	 -304.32	   69.94
     21.3066	   91.00	   75.47	 -277.22	   69.84
     21.3401	   85.00	   75.36	 -283.11	   69.73
     21.3735	   73.00	   75.26	 -295.01	   69.63
     21.4069	   70.00	   75.16	 -297.91	   69.52
     21.4403	   62.00	   75.05	 -305.80	   69.42
     21.4737	   71.00	   74.95	 -296.70	   69.32
     21.5072	   57.00	   74.85	 -310.60	   69.21
     21.5406	   70.00	   74.75	 -297.50	   69.11
     21.5740	   69.00	   74.65	 -298.40	   69.01
     21.6074	   65.00	   74.55	 -302.30	   68.90
     21.6409	   74.00	   74.45	 -293.20	   68.80
     21.6743	   57.00	   74.35	 -310.10	   68.70
     21.7077	   65.00	   74.26	 -302.01	   68.59
     21.7411	   76.00	   74.16	 -290.91	   68.49
     21.7745	   70.00	   74.06	 -296.81	   68.39
     21.8080	   61.00	   73.97	 -305.72	   68.28
     21.8414	   77.00	   73.87	 -289.62	   68.18
     21.8748	   66.00	   73.78	 -300.53	   68.08
     21.9082	   56.00	   73.68	 -310.43	   67.98
     21.9417	   68.00	   73.59	 -298.34	   67.87
     21.9751	   69.00	   73.50	 -297.25	   67.77
     22.0085	   73.00	   73.41	 -293.16	   67.67
     22.0419	   76.00	   73.32	 -290.07	   67.57
     22.0753	   73.00	   73.22	 -292.97	   67.47
     22.1088	   69.00	   73.13	 -296.88	   67.37
     22.1422	   68.00	   73.04	 -297.79	   67.26
     22.1756	   69.00	   72.96	 -296.71	   67.16
     22.2090	   77.00	   72.87	 -288.62	   67.06
     22.2425	   82.00	   72.78	 -283.53	   66.96
     22.2759	   72.00	   72.69	 -293.44	   66.86
     22.3093	   73.00	   72.61	 -292.36	   66.76
     22.3427	   66.00	   72.52	 -299.27	   66.66
     22.3762	   86.00	   72.44	 -279.19	   66.56
     22.4096	   79.00	   72.35	 -286.10	   66.46
     22.4430	   75.00	   72.27	 -290.02	   66.36
     22.4764	   55.00	   72.18	 -309.93	   66.26
     22.5098	   63.00	   72.10	 -301.85	   66.16
     22.5433	   79.00	   72.02	 -285.77	   66.06
     22.5767	   66.00	   71.94	 -298.69	   65.96
     22.6101	   63.00	   71.86	 -301.61	   65.86
     22.6435	   71.00	   71.78	 -293.53	   65.76
     22.6770	   68.00	   71.70	 -296.45	   65.66
     22.7104	   63.00	   71.62	 -301.37	   65.56
     22.7438	   77.00	   71.55	 -287.30	   65.46
     22.7772	   68.00	   71.54	 -296.29	   65.36
     22.8106	   66.00	   71.47	 -298.22	   65.26
     22.8441	   70.00	   71.39	 -294.14	   65.16
     22.8775	   65.00	   71.35	 -299.10	   65.07
     22.9109	   83.00	   71.28	 -281.03	   64.97
     22.9443	   69.00	   71.21	 -294.96	   64.87
     22.9778	   68.00	   71.14	 -295.89	   64.77
     23.0112	   75.00	   71.07	 -288.82	   64.67
     23.0446	   86.00	   71.00	 -277.75	   64.57
     23.0780	   66.00	   70.93	 -297.68	   64.48
     23.1114	   68.00	   70.87	 -295.62	   64.38
     23.1449	   63.00	   70.80	 -300.55	   64.28
     23.1783	   71.00	   70.73	 -292.48	   64.18
     23.2117	   73.00	   70.67	 -290.42	   64.09
     23.2451	   79.00	   70.61	 -284.36	   63.99
     23.2786	   73.00	   70.54	 -290.29	   63.89
     23.3120	   68.00	   70.48	 -295.23	   63.80
     23.3454	   63.00	   70.42	 -300.17	   63.70
     23.3788	   55.00	   70.36	 -308.11	   63.60
