 Nd hydroxide   Chi2:  3.7099  CELL:    6.42529   6.42529   3.74145   90.0000   90.0000  120.0000   SPGR: P 63/m                 TEMP:      0.00
  1   2693     1.54060     1.54439     0.00000    -0.03630     0.00000    0
   201     0     1
       0.00000      14.00000
 2Theta	Yobs	Ycal	Yobs-Ycal	Backg	Posr	(hkl)	K
     10.0098	 276.000	 104.591	-248.750	 101.122
     10.0432	 242.000	 104.461	-248.750	 100.992
     10.0767	 270.000	 104.331	-248.750	 100.862
     10.1101	 278.000	 104.201	-248.750	 100.732
     10.1435	 251.000	 104.071	-248.750	 100.602
     10.1769	 235.000	 103.942	-248.750	 100.473
     10.2103	 232.000	 103.812	-248.750	 100.343
     10.2438	 251.000	 103.683	-248.750	 100.214
     10.2772	 237.000	 103.554	-248.750	 100.085
     10.3106	 249.000	 103.425	-248.750	  99.956
     10.3440	 251.000	 103.296	-248.750	  99.827
     10.3775	 240.000	 103.167	-248.750	  99.698
     10.4109	 236.000	 103.038	-248.750	  99.569
     10.4443	 242.000	 102.910	-248.750	  99.441
     10.4777	 230.000	 102.781	-248.750	  99.312
     10.5111	 256.000	 102.653	-248.750	  99.184
     10.5446	 225.000	 102.525	-248.750	  99.056
     10.5780	 234.000	 102.397	-248.750	  98.928
     10.6114	 222.000	 102.269	-248.750	  98.800
     10.6448	 226.000	 102.141	-248.750	  98.672
     10.6783	 233.000	 102.014	-248.750	  98.545
     10.7117	 224.000	 101.886	-248.750	  98.417
     10.7451	 224.000	 101.759	-248.750	  98.290
     10.7785	 222.000	 101.631	-248.750	  98.163
     10.8120	 234.000	 101.504	-248.750	  98.035
     10.8454	 225.000	 101.377	-248.750	  97.909
     10.8788	 259.000	 101.250	-248.750	  97.782
     10.9122	 252.000	 101.124	-248.750	  97.655
     10.9456	 244.000	 100.997	-248.750	  97.528
     10.9791	 213.000	 100.871	-248.750	  97.402
     11.0125	 211.000	 100.744	-248.750	  97.276
     11.0459	 246.000	 100.618	-248.750	  97.149
     11.0793	 226.000	 100.492	-248.750	  97.023
     11.1128	 248.000	 100.366	-248.750	  96.897
     11.1462	 210.000	 100.240	-248.750	  96.771
     11.1796	 229.000	 100.115	-248.750	  96.646
     11.2130	 226.000	  99.989	-248.750	  96.520
     11.2464	 203.000	  99.864	-248.750	  96.395
     11.2799	 246.000	  99.738	-248.750	  96.269
     11.3133	 215.000	  99.613	-248.750	  96.144
     11.3467	 233.000	  99.488	-248.750	  96.019
     11.3801	 226.000	  99.363	-248.750	  95.894
     11.4136	 221.000	  99.238	-248.750	  95.770
     11.4470	 223.000	  99.114	-248.750	  95.645
     11.4804	 205.000	  98.989	-248.750	  95.520
     11.5138	 194.000	  98.865	-248.750	  95.396
     11.5472	 205.000	  98.740	-248.750	  95.272
     11.5807	 212.000	  98.616	-248.750	  95.147
     11.6141	 223.000	  98.492	-248.750	  95.023
     11.6475	 225.000	  98.368	-248.750	  94.900
     11.6809	 238.000	  98.245	-248.750	  94.776
     11.7144	 211.000	  98.121	-248.750	  94.652
     11.7478	 217.000	  97.997	-248.750	  94.529
     11.7812	 248.000	  97.874	-248.750	  94.405
     11.8146	 177.000	  97.751	-248.750	  94.282
     11.8481	 210.000	  97.628	-248.750	  94.159
     11.8815	 202.000	  97.505	-248.750	  94.036
     11.9149	 211.000	  97.382	-248.750	  93.913
     11.9483	 197.000	  97.259	-248.750	  93.790
     11.9817	 217.000	  97.136	-248.750	  93.668
     12.0152	 204.000	  97.014	-248.750	  93.545
     12.0486	 216.000	  96.892	-248.750	  93.423
     12.0820	 209.000	  96.769	-248.750	  93.301
     12.1154	 215.000	  96.647	-248.750	  93.178
     12.1489	 207.000	  96.525	-248.750	  93.056
     12.1823	 194.000	  96.403	-248.750	  92.935
     12.2157	 161.000	  96.282	-248.750	  92.813
     12.2491	 231.000	  96.160	-248.750	  92.691
     12.2825	 202.000	  96.038	-248.750	  92.570
     12.3160	 217.000	  95.917	-248.750	  92.448
     12.3494	 188.000	  95.796	-248.750	  92.327
     12.3828	 195.000	  95.675	-248.750	  92.206
     12.4162	 196.000	  95.554	-248.750	  92.085
     12.4497	 183.000	  95.433	-248.750	  91.964
     12.4831	 173.000	  95.312	-248.750	  91.844
     12.5165	 182.000	  95.192	-248.750	  91.723
     12.5499	 216.000	  95.071	-248.750	  91.602
     12.5833	 176.000	  94.951	-248.750	  91.482
     12.6168	 232.000	  94.831	-248.750	  91.362
     12.6502	 197.000	  94.711	-248.750	  91.242
     12.6836	 183.000	  94.591	-248.750	  91.122
     12.7170	 195.000	  94.471	-248.750	  91.002
     12.7505	 163.000	  94.351	-248.750	  90.882
     12.7839	 208.000	  94.231	-248.750	  90.763
     12.8173	 168.000	  94.112	-248.750	  90.643
     12.8507	 167.000	  93.993	-248.750	  90.524
     12.8841	 158.000	  93.873	-248.750	  90.405
     12.9176	 185.000	  93.754	-248.750	  90.286
     12.9510	 204.000	  93.635	-248.750	  90.167
     12.9844	 190.000	  93.517	-248.750	  90.048
     13.0178	 206.000	  93.398	-248.750	  89.929
     13.0513	 199.000	  93.279	-248.750	  89.810
     13.0847	 162.000	  93.161	-248.750	  89.692
     13.1181	 203.000	  93.042	-248.750	  89.574
     13.1515	 172.000	  92.924	-248.750	  89.456
     13.1850	 181.000	  92.806	-248.750	  89.337
     13.2184	 170.000	  92.688	-248.750	  89.219
     13.2518	 184.000	  92.570	-248.750	  89.102
     13.2852	 186.000	  92.453	-248.750	  88.984
     13.3186	 185.000	  92.335	-248.750	  88.866
     13.3521	 180.000	  92.218	-248.750	  88.749
     13.3855	 185.000	  92.100	-248.750	  88.632
     13.4189	 172.000	  91.983	-248.750	  88.514
     13.4523	 178.000	  91.866	-248.750	  88.397
     13.4858	 175.000	  91.749	-248.750	  88.280
     13.5192	 184.000	  91.632	-248.750	  88.163
     13.5526	 161.000	  91.515	-248.750	  88.047
     13.5860	 172.000	  91.399	-248.750	  87.930
     13.6194	 175.000	  91.282	-248.750	  87.814
     13.6529	 167.000	  91.166	-248.750	  87.697
     13.6863	 193.000	  91.050	-248.750	  87.581
     13.7197	 171.000	  90.934	-248.750	  87.465
     13.7531	 146.000	  90.818	-248.750	  87.349
     13.7866	 178.000	  90.702	-248.750	  87.233
     13.8200	 161.000	  90.586	-248.750	  87.117
     13.8534	 175.000	  90.471	-248.750	  87.002
     13.8868	 179.000	  90.355	-248.750	  86.886
     13.9202	 175.000	  90.240	-248.750	  86.771
     13.9537	 138.000	  90.125	-248.750	  86.656
     13.9871	 176.000	  90.009	-248.750	  86.541
     14.0205	 164.000	 102.150	-186.900	  86.426
     14.0539	 169.000	 102.474	-182.224	  86.311
     14.0874	 144.000	 102.822	-207.572	  86.196
     14.1208	 167.000	 103.195	-184.945	  86.081
     14.1542	 146.000	 103.596	-206.346	  85.967
     14.1876	 159.000	 104.158	-193.908	  85.853
     14.2211	 182.000	 104.621	-171.371	  85.738
     14.2545	 153.000	 105.184	-200.934	  85.624
     14.2879	 151.000	 105.719	-203.469	  85.510
     14.3213	 133.000	 106.294	-222.044	  85.396
     14.3547	 152.000	 106.913	-203.663	  85.283
     14.3882	 180.000	 107.578	-176.328	  85.169
     14.4216	 176.000	 108.295	-181.045	  85.055
     14.4550	 193.000	 109.068	-164.818	  84.942
     14.4884	 151.000	 109.901	-207.651	  84.829
     14.5219	 169.000	 110.800	-190.550	  84.716
     14.5553	 162.000	 111.772	-198.522	  84.603
     14.5887	 161.000	 112.822	-200.572	  84.490
     14.6221	 154.000	 113.960	-208.710	  84.377
     14.6555	 167.000	 115.194	-196.944	  84.264
     14.6890	 188.000	 116.533	-177.283	  84.152
     14.7224	 171.000	 117.989	-195.739	  84.039
     14.7558	 157.000	 119.574	-211.324	  83.927
     14.7892	 158.000	 121.302	-212.052	  83.815
     14.8227	 162.000	 123.190	-209.940	  83.703
     14.8561	 164.000	 125.256	-210.006	  83.591
     14.8895	 159.000	 127.521	-217.271	  83.479
     14.9229	 186.000	 130.009	-192.759	  83.367
     14.9563	 171.000	 132.749	-210.499	  83.256
     14.9898	 173.000	 135.773	-211.523	  83.144
     15.0232	 185.000	 139.119	-202.869	  83.033
     15.0566	 164.000	 142.830	-227.580	  82.922
     15.0900	 155.000	 146.958	-240.708	  82.811
     15.1235	 165.000	 151.563	-235.313	  82.700
     15.1569	 176.000	 156.929	-229.679	  82.589
     15.1903	 165.000	 162.713	-246.463	  82.478
     15.2237	 196.000	 169.331	-222.081	  82.368
     15.2571	 170.000	 176.686	-255.436	  82.257
     15.2906	 191.000	 185.019	-242.769	  82.147
     15.3240	 193.000	 194.485	-250.235	  82.037
     15.3574	 196.000	 205.270	-258.020	  81.927
     15.3908	 212.000	 217.583	-254.333	  81.817
     15.4243	 203.000	 231.669	-277.419	  81.707
     15.4577	 220.000	 247.797	-276.547	  81.597
     15.4911	 230.000	 266.266	-285.016	  81.487
     15.5245	 240.000	 287.385	-296.135	  81.378
     15.5580	 264.000	 311.451	-296.201	  81.268
     15.5914	 243.000	 338.702	-344.452	  81.159
     15.6248	 275.000	 369.246	-342.996	  81.050
     15.6582	 316.000	 402.938	-335.688	  80.941
     15.6916	 333.000	 439.229	-354.979	  80.832
     15.7251	 329.000	 476.971	-396.721	  80.723
     15.7585	 396.000	 514.264	-367.014	  80.615
     15.7919	 413.000	 548.412	-384.162	  80.506
     15.8253	 486.000	 576.162	-338.912	  80.398
     15.8588	 607.000	 594.266	-236.016	  80.289
     15.8922	 639.000	 600.299	-210.049	  80.181
     15.9256	 606.000	 593.391	-236.141	  80.073
     15.9590	 528.000	 574.519	-295.269	  79.965
     15.9924	 460.000	 546.179	-334.929	  79.857
     16.0259	 390.000	 511.625	-370.375	  79.750
     16.0593	 336.000	 474.083	-386.833	  79.642
     16.0927	 331.000	 436.196	-353.946	  79.534
     16.1261	 311.000	 399.821	-337.571	  79.427
     16.1596	 249.000	 366.078	-365.828	  79.320
     16.1930	 244.000	 335.486	-340.236	  79.213
     16.2264	 242.000	 308.183	-314.933	  79.106
     16.2598	 209.000	 284.051	-323.801	  78.999
     16.2932	 224.000	 262.854	-287.604	  78.892
     16.3267	 218.000	 244.288	-275.038	  78.785
     16.3601	 182.000	 228.050	-294.800	  78.679
     16.3935	 180.000	 213.841	-282.591	  78.573
     16.4269	 171.000	 201.391	-279.141	  78.466
     16.4604	 171.000	 190.462	-268.212	  78.360
     16.4938	 171.000	 180.841	-258.591	  78.254
     16.5272	 165.000	 172.346	-256.096	  78.148
     16.5606	 154.000	 164.822	-259.572	  78.042
     16.5941	 169.000	 158.134	-237.884	  77.937
     16.6275	 144.000	 152.171	-256.921	  77.831
     16.6609	 149.000	 146.833	-246.583	  77.726
     16.6943	 151.000	 142.040	-239.790	  77.620
     16.7277	 138.000	 137.721	-248.471	  77.515
     16.7612	 143.000	 133.816	-239.566	  77.410
     16.7946	 143.000	 130.275	-236.025	  77.305
     16.8280	 136.000	 127.053	-239.803	  77.200
     16.8614	 151.000	 124.114	-221.864	  77.095
     16.8949	 132.000	 121.426	-238.176	  76.991
     16.9283	 127.000	 118.959	-240.709	  76.886
     16.9617	 114.000	 116.691	-251.441	  76.782
     16.9951	 109.000	 114.600	-254.350	  76.677
     17.0285	 131.000	 112.667	-230.417	  76.573
     17.0620	 119.000	 110.878	-240.628	  76.469
     17.0954	 127.000	 109.217	-230.967	  76.365
     17.1288	 148.000	 107.672	-208.422	  76.261
     17.1622	 119.000	 106.232	-235.982	  76.158
     17.1957	 133.000	 104.887	-220.637	  76.054
     17.2291	 129.000	 103.630	-223.380	  75.951
     17.2625	 129.000	 102.451	-222.201	  75.847
     17.2959	 115.000	 101.344	-235.094	  75.744
     17.3293	 115.000	 100.303	-234.053	  75.641
     17.3628	 111.000	  99.323	-237.073	  75.538
     17.3962	 124.000	  98.398	-223.148	  75.435
     17.4296	  97.000	  97.524	-249.274	  75.332
     17.4630	 124.000	  96.697	-221.447	  75.230
     17.4965	 130.000	  95.913	-214.663	  75.127
     17.5299	  99.000	  95.170	-244.920	  75.025
     17.5633	 110.000	  94.463	-233.213	  74.922
     17.5967	 121.000	  93.791	-221.541	  74.820
     17.6301	 114.000	  93.150	-227.900	  74.718
     17.6636	 108.000	  92.539	-233.289	  74.616
     17.6970	  99.000	  91.955	-241.705	  74.514
     17.7304	  99.000	  91.398	-241.148	  74.413
     17.7638	  91.000	  90.863	-248.613	  74.311
     17.7973	 111.000	  90.352	-228.102	  74.210
     17.8307	 102.000	  89.861	-236.611	  74.108
     17.8641	 114.000	  89.389	-224.139	  74.007
     17.8975	 101.000	  88.936	-236.686	  73.906
     17.9310	 100.000	  88.500	-237.250	  73.805
     17.9644	  98.000	  88.080	-238.830	  73.704
     17.9978	 103.000	  87.676	-233.426	  73.603
     18.0312	 114.000	  87.285	-222.035	  73.502
     18.0646	  94.000	  86.908	-241.658	  73.402
     18.0981	  92.000	  86.543	-243.293	  73.301
     18.1315	 100.000	  86.191	-234.941	  73.201
     18.1649	  90.000	  85.849	-244.599	  73.101
     18.1983	 110.000	  85.518	-224.268	  73.001
     18.2318	 104.000	  85.198	-229.948	  72.901
     18.2652	  86.000	  84.886	-247.636	  72.801
     18.2986	  86.000	  84.584	-247.334	  72.701
     18.3320	 112.000	  84.290	-221.040	  72.602
     18.3654	  81.000	  84.005	-251.755	  72.502
     18.3989	 104.000	  83.727	-228.477	  72.403
     18.4323	 101.000	  83.456	-231.206	  72.303
     18.4657	  96.000	  83.236	-235.986	  72.204
     18.4991	  96.000	  82.979	-235.729	  72.105
     18.5326	 112.000	  82.750	-219.500	  72.006
     18.5660	  79.000	  82.505	-252.255	  71.907
     18.5994	 102.000	  82.267	-229.017	  71.808
     18.6328	  83.000	  82.033	-247.783	  71.710
     18.6662	  79.000	  81.805	-251.555	  71.611
     18.6997	  95.000	  81.582	-235.332	  71.513
     18.7331	  96.000	  81.364	-234.114	  71.415
     18.7665	  82.000	  81.150	-247.900	  71.316
     18.7999	 112.000	  80.941	-217.691	  71.218
     18.8334	 101.000	  80.735	-228.485	  71.121
     18.8668	 102.000	  80.534	-227.284	  71.023
     18.9002	  86.000	  80.337	-243.087	  70.925
     18.9336	  97.000	  80.143	-231.893	  70.827
     18.9671	 105.000	  79.953	-223.703	  70.730
     19.0005	  82.000	  79.766	-246.516	  70.633
     19.0339	  85.000	  79.582	-243.332	  70.535
     19.0673	  81.000	  79.402	-247.152	  70.438
     19.1007	  94.000	  79.225	-233.975	  70.341
     19.1342	  89.000	  79.050	-238.800	  70.244
     19.1676	  97.000	  78.878	-230.628	  70.147
     19.2010	  91.000	  78.709	-236.460	  70.051
     19.2344	  90.000	  78.543	-237.293	  69.954
     19.2679	  77.000	  78.379	-250.129	  69.858
     19.3013	  96.000	  78.218	-230.968	  69.761
     19.3347	  89.000	  78.059	-237.809	  69.665
     19.3681	  71.000	  77.902	-255.652	  69.569
     19.4015	  77.000	  77.747	-249.497	  69.473
     19.4350	  76.000	  77.595	-250.345	  69.377
     19.4684	  77.000	  77.444	-249.194	  69.281
     19.5018	  90.000	  77.296	-236.046	  69.186
     19.5352	 102.000	  77.149	-223.899	  69.090
     19.5687	  75.000	  77.004	-250.754	  68.995
     19.6021	  88.000	  76.861	-237.611	  68.899
     19.6355	  86.000	  76.720	-239.470	  68.804
     19.6689	  98.000	  76.581	-227.331	  68.709
     19.7023	  97.000	  76.443	-228.193	  68.614
     19.7358	  86.000	  76.307	-239.057	  68.519
     19.7692	  87.000	  76.172	-237.922	  68.424
     19.8026	  78.000	  76.039	-246.789	  68.330
     19.8360	  82.000	  75.907	-242.657	  68.235
     19.8695	  77.000	  75.777	-247.527	  68.141
     19.9029	  85.000	  75.648	-239.398	  68.046
     19.9363	  82.000	  75.520	-242.270	  67.952
     19.9697	  88.000	  75.394	-236.144	  67.858
     20.0032	  86.000	  75.269	-238.019	  67.764
     20.0366	  96.000	  75.146	-227.896	  67.670
     20.0700	  79.000	  75.023	-244.773	  67.576
     20.1034	  64.000	  74.902	-259.652	  67.483
     20.1368	  84.000	  74.782	-239.532	  67.389
     20.1703	  89.000	  74.663	-234.413	  67.296
     20.2037	  77.000	  74.546	-246.296	  67.202
     20.2371	  81.000	  74.429	-242.179	  67.109
     20.2705	  75.000	  74.313	-248.063	  67.016
     20.3040	  69.000	  74.199	-253.949	  66.923
     20.3374	  91.000	  74.085	-231.835	  66.830
     20.3708	 102.000	  73.973	-220.723	  66.737
     20.4042	  89.000	  73.862	-233.612	  66.645
     20.4376	  66.000	  73.751	-256.501	  66.552
     20.4711	  82.000	  73.642	-240.392	  66.460
     20.5045	  69.000	  73.533	-253.283	  66.367
     20.5379	  82.000	  73.425	-240.175	  66.275
     20.5713	  79.000	  73.319	-243.069	  66.183
     20.6048	  75.000	  73.213	-246.963	  66.091
     20.6382	  57.000	  73.108	-264.858	  65.999
     20.6716	  68.000	  73.004	-253.754	  65.907
     20.7050	  89.000	  72.901	-232.651	  65.816
     20.7384	  85.000	  72.798	-236.548	  65.724
     20.7719	  70.000	  72.697	-251.447	  65.633
     20.8053	  72.000	  72.596	-249.346	  65.541
     20.8387	  75.000	  72.496	-246.246	  65.450
     20.8721	  71.000	  72.397	-250.147	  65.359
     20.9056	  74.000	  72.299	-247.049	  65.268
     20.9390	  89.000	  72.202	-231.952	  65.177
     20.9724	  59.000	  72.105	-261.855	  65.086
     21.0058	  55.000	  72.009	-265.759	  64.995
     21.0392	  76.000	  71.914	-244.664	  64.905
     21.0727	  81.000	  71.819	-239.569	  64.814
     21.1061	  73.000	  71.726	-247.476	  64.724
     21.1395	  86.000	  71.633	-234.383	  64.634
     21.1729	  71.000	  71.541	-249.291	  64.544
     21.2064	  64.000	  71.449	-256.199	  64.454
     21.2398	  61.000	  71.359	-259.109	  64.364
     21.2732	  79.000	  71.269	-241.019	  64.274
     21.3066	  59.000	  71.180	-260.930	  64.184
     21.3401	  70.000	  71.091	-249.841	  64.095
     21.3735	  81.000	  71.003	-238.753	  64.005
     21.4069	  76.000	  70.916	-243.666	  63.916
     21.4403	  78.000	  70.830	-241.580	  63.826
     21.4737	  72.000	  70.744	-247.494	  63.737
     21.5072	  63.000	  70.660	-256.410	  63.648
     21.5406	  66.000	  70.575	-253.325	  63.559
     21.5740	  73.000	  70.492	-246.242	  63.470
     21.6074	  71.000	  70.409	-248.159	  63.382
     21.6409	  77.000	  70.327	-242.077	  63.293
     21.6743	  71.000	  70.246	-247.996	  63.205
     21.7077	  81.000	  70.165	-237.915	  63.116
     21.7411	  68.000	  70.085	-250.835	  63.028
     21.7745	  79.000	  70.006	-239.756	  62.940
     21.8080	  65.000	  69.927	-253.677	  62.852
     21.8414	  71.000	  69.850	-247.600	  62.764
     21.8748	  59.000	  69.773	-259.523	  62.676
     21.9082	  60.000	  69.696	-258.446	  62.588
     21.9417	  66.000	  69.621	-252.371	  62.500
     21.9751	  72.000	  69.546	-246.296	  62.413
     22.0085	  60.000	  69.472	-258.222	  62.325
     22.0419	  66.000	  69.398	-252.148	  62.238
     22.0753	  57.000	  69.326	-261.076	  62.151
     22.1088	  63.000	  69.254	-255.004	  62.064
     22.1422	  75.000	  69.183	-242.933	  61.977
     22.1756	  74.000	  69.112	-243.862	  61.890
     22.2090	  72.000	  69.042	-245.792	  61.803
     22.2425	  78.000	  68.974	-239.724	  61.716
     22.2759	  87.000	  68.906	-230.656	  61.630
     22.3093	  66.000	  68.838	-251.588	  61.543
     22.3427	  56.000	  68.772	-261.522	  61.457
     22.3762	  64.000	  68.706	-253.456	  61.371
     22.4096	  75.000	  68.641	-242.391	  61.284
     22.4430	  84.000	  68.577	-233.327	  61.198
     22.4764	  65.000	  68.514	-252.264	  61.112
     22.5098	  65.000	  68.451	-252.201	  61.027
     22.5433	  76.000	  68.390	-241.140	  60.941
     22.5767	  64.000	  68.329	-253.079	  60.855
     22.6101	  66.000	  68.269	-251.019	  60.770
     22.6435	  73.000	  68.210	-243.960	  60.684
     22.6770	  77.000	  68.152	-239.902	  60.599
     22.7104	  63.000	  68.095	-253.845	  60.514
     22.7438	  57.000	  68.039	-259.789	  60.429
     22.7772	  71.000	  67.984	-245.734	  60.344
     22.8106	  76.000	  67.929	-240.679	  60.259
     22.8441	  65.000	  67.876	-251.626	  60.174
     22.8775	  55.000	  67.824	-261.574	  60.089
     22.9109	  52.000	  67.772	-264.522	  60.005
     22.9443	  86.000	  67.722	-230.472	  59.920
     22.9778	  64.000	  67.684	-252.434	  59.836
     23.0112	  73.000	  67.636	-243.386	  59.752
     23.0446	  72.000	  67.589	-244.339	  59.668
     23.0780	  57.000	  67.548	-259.298	  59.584
     23.1114	  63.000	  67.503	-253.253	  59.500
     23.1449	  62.000	  67.460	-254.210	  59.416
     23.1783	  68.000	  67.417	-248.167	  59.332
     23.2117	  84.000	  67.376	-232.126	  59.249
     23.2451	  74.000	  67.335	-242.085	  59.165
     23.2786	  61.000	  67.297	-255.047	  59.082
     23.3120	  75.000	  67.259	-241.009	  58.998
     23.3454	  71.000	  67.222	-244.972	  58.915
     23.3788	  60.000	  67.187	-255.937	  58.832
