 Nd hydroxide   Chi2:  3.5431  CELL:    6.42482   6.42482   3.73935   90.0000   90.0000  120.0000   SPGR: P 63/m                 TEMP:      0.00
  1   2693     1.54060     1.54439     0.00000    -0.04176     0.00000    0
   182     0     1
       0.00000      14.00000
 2Theta	Yobs	Ycal	Yobs-Ycal	Backg	Posr	(hkl)	K
     10.0098	  229.00	  108.86	 -252.82	  106.10
     10.0432	  249.00	  108.70	 -252.82	  105.95
     10.0767	  252.00	  108.55	 -252.82	  105.79
     10.1101	  239.00	  108.40	 -252.82	  105.64
     10.1435	  226.00	  108.24	 -252.82	  105.49
     10.1769	  271.00	  108.09	 -252.82	  105.33
     10.2103	  266.00	  107.94	 -252.82	  105.18
     10.2438	  238.00	  107.78	 -252.82	  105.03
     10.2772	  240.00	  107.63	 -252.82	  104.87
     10.3106	  247.00	  107.48	 -252.82	  104.72
     10.3440	  236.00	  107.32	 -252.82	  104.57
     10.3775	  244.00	  107.17	 -252.82	  104.42
     10.4109	  264.00	  107.02	 -252.82	  104.26
     10.4443	  247.00	  106.87	 -252.82	  104.11
     10.4777	  289.00	  106.72	 -252.82	  103.96
     10.5111	  212.00	  106.56	 -252.82	  103.81
     10.5446	  210.00	  106.41	 -252.82	  103.66
     10.5780	  243.00	  106.26	 -252.82	  103.50
     10.6114	  216.00	  106.11	 -252.82	  103.35
     10.6448	  221.00	  105.96	 -252.82	  103.20
     10.6783	  249.00	  105.81	 -252.82	  103.05
     10.7117	  227.00	  105.66	 -252.82	  102.90
     10.7451	  246.00	  105.51	 -252.82	  102.75
     10.7785	  226.00	  105.36	 -252.82	  102.60
     10.8120	  210.00	  105.21	 -252.82	  102.45
     10.8454	  226.00	  105.05	 -252.82	  102.30
     10.8788	  227.00	  104.90	 -252.82	  102.15
     10.9122	  250.00	  104.76	 -252.82	  102.00
     10.9456	  222.00	  104.61	 -252.82	  101.85
     10.9791	  218.00	  104.46	 -252.82	  101.70
     11.0125	  200.00	  104.31	 -252.82	  101.55
     11.0459	  200.00	  104.16	 -252.82	  101.40
     11.0793	  223.00	  104.01	 -252.82	  101.25
     11.1128	  224.00	  103.86	 -252.82	  101.10
     11.1462	  217.00	  103.71	 -252.82	  100.95
     11.1796	  210.00	  103.56	 -252.82	  100.81
     11.2130	  237.00	  103.41	 -252.82	  100.66
     11.2464	  192.00	  103.27	 -252.82	  100.51
     11.2799	  213.00	  103.12	 -252.82	  100.36
     11.3133	  208.00	  102.97	 -252.82	  100.21
     11.3467	  189.00	  102.82	 -252.82	  100.07
     11.3801	  204.00	  102.67	 -252.82	   99.92
     11.4136	  224.00	  102.53	 -252.82	   99.77
     11.4470	  220.00	  102.38	 -252.82	   99.62
     11.4804	  227.00	  102.23	 -252.82	   99.48
     11.5138	  221.00	  102.09	 -252.82	   99.33
     11.5472	  238.00	  101.94	 -252.82	   99.18
     11.5807	  220.00	  101.79	 -252.82	   99.04
     11.6141	  191.00	  101.65	 -252.82	   98.89
     11.6475	  194.00	  101.50	 -252.82	   98.74
     11.6809	  223.00	  101.35	 -252.82	   98.60
     11.7144	  192.00	  101.21	 -252.82	   98.45
     11.7478	  194.00	  101.06	 -252.82	   98.31
     11.7812	  204.00	  100.92	 -252.82	   98.16
     11.8146	  223.00	  100.77	 -252.82	   98.01
     11.8481	  233.00	  100.63	 -252.82	   97.87
     11.8815	  213.00	  100.48	 -252.82	   97.72
     11.9149	  206.00	  100.34	 -252.82	   97.58
     11.9483	  232.00	  100.19	 -252.82	   97.43
     11.9817	  224.00	  100.05	 -252.82	   97.29
     12.0152	  197.00	   99.90	 -252.82	   97.15
     12.0486	  185.00	   99.76	 -252.82	   97.00
     12.0820	  212.00	   99.61	 -252.82	   96.86
     12.1154	  202.00	   99.47	 -252.82	   96.71
     12.1489	  212.00	   99.33	 -252.82	   96.57
     12.1823	  193.00	   99.18	 -252.82	   96.43
     12.2157	  216.00	   99.04	 -252.82	   96.28
     12.2491	  173.00	   98.90	 -252.82	   96.14
     12.2825	  206.00	   98.75	 -252.82	   96.00
     12.3160	  193.00	   98.61	 -252.82	   95.85
     12.3494	  186.00	   98.47	 -252.82	   95.71
     12.3828	  180.00	   98.32	 -252.82	   95.57
     12.4162	  185.00	   98.18	 -252.82	   95.43
     12.4497	  179.00	   98.04	 -252.82	   95.28
     12.4831	  193.00	   97.90	 -252.82	   95.14
     12.5165	  186.00	   97.76	 -252.82	   95.00
     12.5499	  194.00	   97.61	 -252.82	   94.86
     12.5833	  184.00	   97.47	 -252.82	   94.72
     12.6168	  202.00	   97.33	 -252.82	   94.57
     12.6502	  173.00	   97.19	 -252.82	   94.43
     12.6836	  186.00	   97.05	 -252.82	   94.29
     12.7170	  188.00	   96.91	 -252.82	   94.15
     12.7505	  200.00	   96.77	 -252.82	   94.01
     12.7839	  199.00	   96.63	 -252.82	   93.87
     12.8173	  191.00	   96.49	 -252.82	   93.73
     12.8507	  192.00	   96.34	 -252.82	   93.59
     12.8841	  168.00	   96.20	 -252.82	   93.45
     12.9176	  172.00	   96.06	 -252.82	   93.31
     12.9510	  165.00	   95.92	 -252.82	   93.17
     12.9844	  156.00	   95.78	 -252.82	   93.03
     13.0178	  198.00	   95.65	 -252.82	   92.89
     13.0513	  165.00	   95.51	 -252.82	   92.75
     13.0847	  150.00	   95.37	 -252.82	   92.61
     13.1181	  196.00	   95.23	 -252.82	   92.47
     13.1515	  200.00	   95.09	 -252.82	   92.33
     13.1850	  162.00	   94.95	 -252.82	   92.19
     13.2184	  183.00	   94.81	 -252.82	   92.05
     13.2518	  195.00	   94.67	 -252.82	   91.92
     13.2852	  184.00	   94.53	 -252.82	   91.78
     13.3186	  165.00	   94.40	 -252.82	   91.64
     13.3521	  188.00	   94.26	 -252.82	   91.50
     13.3855	  173.00	   94.12	 -252.82	   91.36
     13.4189	  172.00	   93.98	 -252.82	   91.23
     13.4523	  172.00	   93.84	 -252.82	   91.09
     13.4858	  181.00	   93.71	 -252.82	   90.95
     13.5192	  190.00	   93.57	 -252.82	   90.81
     13.5526	  159.00	   93.43	 -252.82	   90.68
     13.5860	  162.00	   93.30	 -252.82	   90.54
     13.6194	  185.00	   93.16	 -252.82	   90.40
     13.6529	  152.00	   93.02	 -252.82	   90.27
     13.6863	  180.00	   92.89	 -252.82	   90.13
     13.7197	  179.00	   92.75	 -252.82	   89.99
     13.7531	  177.00	   92.61	 -252.82	   89.86
     13.7866	  170.00	   92.48	 -252.82	   89.72
     13.8200	  185.00	   92.34	 -252.82	   89.59
     13.8534	  162.00	   92.21	 -252.82	   89.45
     13.8868	  158.00	   92.07	 -252.82	   89.31
     13.9202	  176.00	   91.94	 -252.82	   89.18
     13.9537	  184.00	   91.80	 -252.82	   89.04
     13.9871	  166.00	   91.67	 -252.82	   88.91
     14.0205	  168.00	   98.29	 -183.11	   88.77
     14.0539	  168.00	   98.40	 -183.22	   88.64
     14.0874	  172.00	   98.53	 -179.35	   88.50
     14.1208	  163.00	   98.67	 -188.49	   88.37
     14.1542	  161.00	   98.83	 -190.65	   88.24
     14.1876	  159.00	   99.00	 -192.82	   88.10
     14.2211	  186.00	   99.19	 -166.01	   87.97
     14.2545	  177.00	   99.40	 -175.23	   87.83
     14.2879	  143.00	   99.64	 -209.46	   87.70
     14.3213	  140.00	   99.90	 -212.72	   87.57
     14.3547	  158.00	  100.18	 -195.00	   87.43
     14.3882	  167.00	  100.49	 -186.31	   87.30
     14.4216	  167.00	  100.83	 -186.65	   87.17
     14.4550	  164.00	  101.21	 -190.03	   87.04
     14.4884	  156.00	  101.62	 -198.44	   86.90
     14.5219	  166.00	  102.07	 -188.89	   86.77
     14.5553	  152.00	  102.56	 -203.38	   86.64
     14.5887	  158.00	  103.10	 -197.92	   86.51
     14.6221	  148.00	  103.70	 -208.52	   86.37
     14.6555	  161.00	  104.35	 -196.17	   86.24
     14.6890	  159.00	  105.07	 -198.89	   86.11
     14.7224	  150.00	  105.86	 -208.68	   85.98
     14.7558	  159.00	  106.73	 -200.55	   85.85
     14.7892	  135.00	  107.69	 -225.51	   85.72
     14.8227	  159.00	  108.75	 -202.57	   85.58
     14.8561	  171.00	  109.92	 -191.74	   85.45
     14.8895	  161.00	  111.23	 -203.05	   85.32
     14.9229	  173.00	  112.67	 -192.50	   85.19
     14.9563	  148.00	  114.29	 -219.11	   85.06
     14.9898	  177.00	  116.09	 -191.91	   84.93
     15.0232	  139.00	  118.11	 -231.93	   84.80
     15.0566	  153.00	  120.38	 -220.20	   84.67
     15.0900	  141.00	  122.93	 -234.75	   84.54
     15.1235	  146.00	  125.83	 -232.65	   84.41
     15.1569	  146.00	  129.11	 -235.93	   84.28
     15.1903	  139.00	  132.86	 -246.68	   84.15
     15.2237	  165.00	  137.16	 -224.98	   84.02
     15.2571	  157.00	  142.12	 -237.94	   83.89
     15.2906	  164.00	  147.86	 -236.68	   83.77
     15.3240	  186.00	  154.56	 -221.38	   83.64
     15.3574	  154.00	  162.44	 -261.26	   83.51
     15.3908	  177.00	  171.76	 -247.58	   83.38
     15.4243	  193.00	  182.90	 -242.72	   83.25
     15.4577	  209.00	  196.32	 -240.15	   83.12
     15.4911	  165.00	  212.66	 -300.48	   82.99
     15.5245	  209.00	  232.71	 -276.53	   82.87
     15.5580	  237.00	  257.50	 -273.32	   82.74
     15.5914	  240.00	  288.33	 -301.16	   82.61
     15.6248	  243.00	  326.79	 -336.61	   82.48
     15.6582	  272.00	  374.63	 -355.45	   82.36
     15.6916	  292.00	  433.64	 -394.46	   82.23
     15.7251	  350.00	  504.85	 -407.67	   82.10
     15.7585	  396.00	  587.24	 -444.06	   81.98
     15.7919	  492.00	  675.38	 -436.20	   81.85
     15.8253	  632.00	  757.11	 -377.93	   81.72
     15.8588	  719.00	  814.37	 -348.19	   81.60
     15.8922	  707.00	  830.34	 -376.17	   81.47
     15.9256	  722.00	  799.85	 -330.67	   81.34
     15.9590	  593.00	  732.88	 -392.70	   81.22
     15.9924	  464.00	  647.55	 -436.37	   81.09
     16.0259	  431.00	  560.26	 -382.08	   80.97
     16.0593	  341.00	  480.85	 -392.67	   80.84
     16.0927	  312.00	  413.16	 -353.98	   80.72
     16.1261	  260.00	  357.44	 -350.26	   80.59
     16.1596	  250.00	  312.36	 -315.18	   80.47
     16.1930	  180.00	  276.11	 -348.94	   80.34
     16.2264	  184.00	  246.98	 -315.80	   80.22
     16.2598	  184.00	  223.47	 -292.29	   80.09
     16.2932	  159.00	  204.38	 -298.20	   79.97
     16.3267	  168.00	  188.73	 -273.55	   79.84
     16.3601	  117.00	  175.79	 -311.61	   79.72
     16.3935	  158.00	  164.98	 -259.80	   79.60
     16.4269	  161.00	  155.87	 -247.69	   79.47
     16.4604	  167.00	  148.12	 -233.94	   79.35
     16.4938	  157.00	  141.47	 -237.29	   79.22
     16.5272	  129.00	  135.73	 -259.55	   79.10
     16.5606	  126.00	  130.73	 -257.55	   78.98
     16.5941	  119.00	  126.35	 -260.17	   78.86
     16.6275	  136.00	  122.50	 -239.32	   78.73
     16.6609	  128.00	  119.08	 -243.90	   78.61
     16.6943	  125.00	  116.04	 -243.86	   78.49
     16.7277	  117.00	  113.32	 -249.14	   78.36
     16.7612	  129.00	  110.88	 -234.70	   78.24
     16.7946	  136.00	  108.68	 -225.50	   78.12
     16.8280	  135.00	  106.68	 -224.50	   78.00
     16.8614	  125.00	  104.87	 -232.69	   77.88
     16.8949	   94.00	  103.21	 -262.04	   77.75
     16.9283	  125.00	  101.70	 -229.52	   77.63
     16.9617	  128.00	  100.31	 -225.13	   77.51
     16.9951	  137.00	   99.03	 -214.85	   77.39
     17.0285	  113.00	   97.84	 -237.66	   77.27
     17.0620	  102.00	   96.74	 -247.56	   77.15
     17.0954	  113.00	   95.72	 -235.54	   77.03
     17.1288	  133.00	   94.77	 -214.59	   76.91
     17.1622	  128.00	   93.89	 -218.71	   76.79
     17.1957	  122.00	   93.06	 -223.88	   76.67
     17.2291	  117.00	   92.28	 -228.10	   76.55
     17.2625	  103.00	   91.54	 -241.36	   76.43
     17.2959	  109.00	   90.85	 -234.67	   76.31
     17.3293	   99.00	   90.20	 -244.02	   76.19
     17.3628	  115.00	   89.58	 -227.41	   76.07
     17.3962	  101.00	   89.00	 -240.82	   75.95
     17.4296	  101.00	   88.45	 -240.27	   75.83
     17.4630	   96.00	   87.92	 -244.74	   75.71
     17.4965	  121.00	   87.41	 -219.24	   75.59
     17.5299	  122.00	   86.93	 -217.76	   75.47
     17.5633	  103.00	   86.48	 -236.30	   75.35
     17.5967	   99.00	   86.04	 -239.86	   75.23
     17.6301	  106.00	   85.62	 -232.44	   75.12
     17.6636	  103.00	   85.21	 -235.03	   75.00
     17.6970	  119.00	   84.82	 -218.64	   74.88
     17.7304	   94.00	   84.45	 -243.27	   74.76
     17.7638	  104.00	   84.09	 -232.91	   74.64
     17.7973	   95.00	   83.74	 -241.56	   74.53
     17.8307	  111.00	   83.41	 -225.23	   74.41
     17.8641	  100.00	   83.08	 -235.90	   74.29
     17.8975	  118.00	   82.77	 -217.59	   74.17
     17.9310	  114.00	   82.46	 -221.28	   74.06
     17.9644	   92.00	   82.17	 -242.99	   73.94
     17.9978	  100.00	   81.88	 -234.70	   73.82
     18.0312	   97.00	   81.60	 -237.42	   73.71
     18.0646	  110.00	   81.33	 -224.15	   73.59
     18.0981	   87.00	   81.06	 -246.88	   73.47
     18.1315	  110.00	   80.80	 -223.62	   73.36
     18.1649	   92.00	   80.55	 -241.37	   73.24
     18.1983	  105.00	   80.31	 -228.13	   73.12
     18.2318	  105.00	   80.07	 -227.89	   73.01
     18.2652	   88.00	   79.83	 -244.65	   72.89
     18.2986	   81.00	   79.60	 -251.42	   72.78
     18.3320	  101.00	   79.38	 -231.20	   72.66
     18.3654	   99.00	   79.15	 -232.98	   72.55
     18.3989	   83.00	   78.94	 -248.76	   72.43
     18.4323	   81.00	   78.73	 -250.55	   72.32
     18.4657	  113.00	   78.52	 -218.34	   72.20
     18.4991	  101.00	   78.31	 -230.13	   72.09
     18.5326	   98.00	   78.11	 -232.93	   71.97
     18.5660	   83.00	   77.91	 -247.74	   71.86
     18.5994	   88.00	   77.72	 -242.54	   71.75
     18.6328	   96.00	   77.53	 -234.35	   71.63
     18.6662	   98.00	   77.34	 -232.16	   71.52
     18.6997	  108.00	   77.15	 -221.97	   71.40
     18.7331	  111.00	   76.97	 -218.79	   71.29
     18.7665	  106.00	   76.79	 -223.61	   71.18
     18.7999	   89.00	   76.61	 -240.43	   71.06
     18.8334	   84.00	   76.44	 -245.26	   70.95
     18.8668	  103.00	   76.26	 -226.08	   70.84
     18.9002	   94.00	   76.09	 -234.91	   70.72
     18.9336	   84.00	   75.92	 -244.74	   70.61
     18.9671	   86.00	   75.75	 -242.57	   70.50
     19.0005	   85.00	   75.59	 -243.41	   70.39
     19.0339	   86.00	   75.42	 -242.24	   70.27
     19.0673	   87.00	   75.26	 -241.08	   70.16
     19.1007	   74.00	   75.10	 -253.92	   70.05
     19.1342	   88.00	   74.94	 -239.76	   69.94
     19.1676	   61.00	   74.79	 -266.61	   69.83
     19.2010	   98.00	   74.63	 -229.45	   69.71
     19.2344	   95.00	   74.48	 -232.30	   69.60
     19.2679	   82.00	   74.32	 -245.14	   69.49
     19.3013	   72.00	   74.36	 -255.18	   69.38
     19.3347	   88.00	   74.21	 -239.03	   69.27
     19.3681	   76.00	   74.16	 -250.98	   69.16
     19.4015	   86.00	   74.01	 -240.83	   69.05
     19.4350	   89.00	   73.87	 -237.69	   68.94
     19.4684	   83.00	   73.73	 -243.55	   68.83
     19.5018	   94.00	   73.58	 -232.41	   68.72
     19.5352	   78.00	   73.44	 -248.26	   68.61
     19.5687	   70.00	   73.30	 -256.12	   68.50
     19.6021	   78.00	   73.17	 -247.99	   68.39
     19.6355	  103.00	   73.03	 -222.85	   68.28
     19.6689	   89.00	   72.89	 -236.71	   68.17
     19.7023	   90.00	   72.76	 -235.58	   68.06
     19.7358	   85.00	   72.62	 -240.44	   67.95
     19.7692	   74.00	   72.49	 -251.31	   67.84
     19.8026	   89.00	   72.35	 -236.17	   67.73
     19.8360	   82.00	   72.22	 -243.04	   67.62
     19.8695	   82.00	   72.09	 -242.91	   67.51
     19.9029	   83.00	   71.96	 -241.78	   67.40
     19.9363	   92.00	   71.83	 -232.65	   67.30
     19.9697	   71.00	   71.70	 -253.52	   67.19
     20.0032	   83.00	   71.57	 -241.39	   67.08
     20.0366	   66.00	   71.44	 -258.27	   66.97
     20.0700	   91.00	   71.32	 -233.14	   66.86
     20.1034	   75.00	   71.19	 -249.01	   66.76
     20.1368	   72.00	   71.07	 -251.89	   66.65
     20.1703	   94.00	   70.94	 -229.76	   66.54
     20.2037	   81.00	   70.82	 -242.64	   66.43
     20.2371	   61.00	   70.69	 -262.51	   66.33
     20.2705	   77.00	   70.87	 -246.69	   66.22
     20.3040	   88.00	   70.75	 -235.57	   66.11
     20.3374	   76.00	   70.78	 -247.60	   66.00
     20.3708	   85.00	   70.67	 -238.49	   65.90
     20.4042	   75.00	   70.55	 -248.37	   65.79
     20.4376	   72.00	   70.43	 -251.25	   65.69
     20.4711	   75.00	   70.32	 -248.14	   65.58
     20.5045	   90.00	   70.20	 -233.02	   65.47
     20.5379	   81.00	   70.09	 -241.91	   65.37
     20.5713	   72.00	   69.97	 -250.80	   65.26
     20.6048	   75.00	   69.86	 -247.68	   65.16
     20.6382	   63.00	   69.75	 -259.57	   65.05
     20.6716	   77.00	   69.64	 -245.46	   64.94
     20.7050	   83.00	   69.52	 -239.35	   64.84
     20.7384	   74.00	   69.41	 -248.23	   64.73
     20.7719	   68.00	   69.30	 -254.12	   64.63
     20.8053	   82.00	   69.19	 -240.01	   64.52
     20.8387	   81.00	   69.08	 -240.90	   64.42
     20.8721	   84.00	   68.98	 -237.80	   64.32
     20.9056	   63.00	   68.87	 -258.69	   64.21
     20.9390	   62.00	   68.76	 -259.58	   64.11
     20.9724	   84.00	   68.65	 -237.47	   64.00
     21.0058	   68.00	   68.54	 -253.37	   63.90
     21.0392	   70.00	   68.44	 -251.26	   63.79
     21.0727	   61.00	   68.33	 -260.15	   63.69
     21.1061	   68.00	   68.23	 -253.05	   63.59
     21.1395	   73.00	   68.12	 -247.94	   63.48
     21.1729	   57.00	   68.02	 -263.84	   63.38
     21.2064	   69.00	   67.91	 -251.73	   63.28
     21.2398	   52.00	   67.81	 -268.63	   63.17
     21.2732	   74.00	   67.71	 -246.53	   63.07
     21.3066	   75.00	   67.60	 -245.42	   62.97
     21.3401	   73.00	   67.50	 -247.32	   62.87
     21.3735	   70.00	   67.40	 -250.22	   62.76
     21.4069	   69.00	   67.30	 -251.12	   62.66
     21.4403	   73.00	   67.20	 -247.02	   62.56
     21.4737	   62.00	   67.10	 -257.92	   62.46
     21.5072	   66.00	   67.00	 -253.82	   62.36
     21.5406	   66.00	   66.90	 -253.72	   62.25
     21.5740	   75.00	   66.80	 -244.62	   62.15
     21.6074	   75.00	   66.70	 -244.52	   62.05
     21.6409	   49.00	   66.60	 -270.42	   61.95
     21.6743	   71.00	   66.51	 -248.33	   61.85
     21.7077	   57.00	   66.41	 -262.23	   61.75
     21.7411	   84.00	   66.31	 -235.13	   61.65
     21.7745	   69.00	   66.22	 -250.04	   61.55
     21.8080	   68.00	   66.12	 -250.94	   61.44
     21.8414	   61.00	   66.03	 -257.85	   61.34
     21.8748	   65.00	   65.93	 -253.75	   61.24
     21.9082	   56.00	   65.84	 -262.66	   61.14
     21.9417	   61.00	   65.74	 -257.56	   61.04
     21.9751	   86.00	   65.65	 -232.47	   60.94
     22.0085	   65.00	   65.56	 -253.38	   60.84
     22.0419	   64.00	   65.47	 -254.29	   60.74
     22.0753	   81.00	   65.37	 -237.19	   60.64
     22.1088	   64.00	   65.28	 -254.10	   60.54
     22.1422	   70.00	   65.19	 -248.01	   60.44
     22.1756	   64.00	   65.10	 -253.92	   60.35
     22.2090	   76.00	   65.01	 -241.83	   60.25
     22.2425	   69.00	   64.92	 -248.74	   60.15
     22.2759	   71.00	   64.83	 -246.65	   60.05
     22.3093	   52.00	   64.74	 -265.57	   59.95
     22.3427	   52.00	   64.66	 -265.48	   59.85
     22.3762	   68.00	   64.57	 -249.39	   59.75
     22.4096	   52.00	   64.48	 -265.30	   59.66
     22.4430	   76.00	   64.40	 -241.22	   59.56
     22.4764	   65.00	   64.31	 -252.13	   59.46
     22.5098	   70.00	   64.23	 -247.05	   59.36
     22.5433	   48.00	   64.14	 -268.96	   59.26
     22.5767	   58.00	   64.06	 -258.88	   59.17
     22.6101	   69.00	   63.97	 -247.79	   59.07
     22.6435	   61.00	   63.89	 -255.71	   58.97
     22.6770	   58.00	   63.81	 -258.63	   58.87
     22.7104	   69.00	   63.73	 -247.55	   58.78
     22.7438	   43.00	   63.65	 -273.47	   58.68
     22.7772	   52.00	   63.56	 -264.39	   58.58
     22.8106	   72.00	   63.48	 -244.31	   58.49
     22.8441	   64.00	   63.40	 -252.23	   58.39
     22.8775	   59.00	   63.33	 -257.15	   58.29
     22.9109	   60.00	   63.25	 -256.07	   58.20
     22.9443	   58.00	   63.17	 -257.99	   58.10
     22.9778	   60.00	   63.09	 -255.91	   58.01
     23.0112	   64.00	   63.02	 -251.84	   57.91
     23.0446	   74.00	   62.94	 -241.76	   57.81
     23.0780	   57.00	   62.87	 -258.69	   57.72
     23.1114	   52.00	   62.79	 -263.61	   57.62
     23.1449	   64.00	   62.72	 -251.54	   57.53
     23.1783	   59.00	   62.65	 -256.47	   57.43
     23.2117	   56.00	   62.57	 -259.39	   57.34
     23.2451	   73.00	   62.50	 -242.32	   57.24
     23.2786	   55.00	   62.43	 -260.25	   57.15
     23.3120	   74.00	   62.36	 -241.18	   57.05
     23.3454	   70.00	   62.29	 -245.11	   56.96
     23.3788	   55.00	   62.22	 -260.05	   56.86
