 Nd hydroxide   Chi2:  2.4045  CELL:    6.42478   6.42478   3.73895   90.0000   90.0000  120.0000   SPGR: P 63/m                 TEMP:      0.00
  1   2693     1.54060     1.54439     0.00000     0.06716     0.00000    0
   170     0     1
       0.00000      14.00000
 2Theta	Yobs	Ycal	Yobs-Ycal	Backg	Posr	(hkl)	K
     10.0098	  242.00	  121.67	 -549.27	  120.62
     10.0432	  210.00	  121.48	 -549.27	  120.43
     10.0767	  232.00	  121.29	 -549.27	  120.24
     10.1101	  211.00	  121.10	 -549.27	  120.06
     10.1435	  237.00	  120.92	 -549.27	  119.87
     10.1769	  256.00	  120.73	 -549.27	  119.68
     10.2103	  232.00	  120.54	 -549.27	  119.49
     10.2438	  296.00	  120.36	 -549.27	  119.31
     10.2772	  259.00	  120.17	 -549.27	  119.12
     10.3106	  207.00	  119.98	 -549.27	  118.94
     10.3440	  244.00	  119.80	 -549.27	  118.75
     10.3775	  238.00	  119.61	 -549.27	  118.56
     10.4109	  232.00	  119.43	 -549.27	  118.38
     10.4443	  234.00	  119.24	 -549.27	  118.19
     10.4777	  213.00	  119.06	 -549.27	  118.01
     10.5111	  229.00	  118.87	 -549.27	  117.82
     10.5446	  247.00	  118.69	 -549.27	  117.64
     10.5780	  245.00	  118.50	 -549.27	  117.45
     10.6114	  251.00	  118.32	 -549.27	  117.27
     10.6448	  219.00	  118.13	 -549.27	  117.08
     10.6783	  255.00	  117.95	 -549.27	  116.90
     10.7117	  247.00	  117.77	 -549.27	  116.72
     10.7451	  232.00	  117.58	 -549.27	  116.53
     10.7785	  253.00	  117.40	 -549.27	  116.35
     10.8120	  240.00	  117.22	 -549.27	  116.17
     10.8454	  236.00	  117.03	 -549.27	  115.98
     10.8788	  227.00	  116.85	 -549.27	  115.80
     10.9122	  217.00	  116.67	 -549.27	  115.62
     10.9456	  227.00	  116.48	 -549.27	  115.44
     10.9791	  202.00	  116.30	 -549.27	  115.25
     11.0125	  219.00	  116.12	 -549.27	  115.07
     11.0459	  173.00	  115.94	 -549.27	  114.89
     11.0793	  221.00	  115.76	 -549.27	  114.71
     11.1128	  206.00	  115.58	 -549.27	  114.53
     11.1462	  198.00	  115.40	 -549.27	  114.35
     11.1796	  238.00	  115.21	 -549.27	  114.17
     11.2130	  213.00	  115.03	 -549.27	  113.99
     11.2464	  200.00	  114.85	 -549.27	  113.80
     11.2799	  219.00	  114.67	 -549.27	  113.62
     11.3133	  213.00	  114.49	 -549.27	  113.44
     11.3467	  209.00	  114.31	 -549.27	  113.26
     11.3801	  218.00	  114.13	 -549.27	  113.08
     11.4136	  170.00	  113.95	 -549.27	  112.91
     11.4470	  226.00	  113.77	 -549.27	  112.73
     11.4804	  208.00	  113.60	 -549.27	  112.55
     11.5138	  217.00	  113.42	 -549.27	  112.37
     11.5472	  194.00	  113.24	 -549.27	  112.19
     11.5807	  209.00	  113.06	 -549.27	  112.01
     11.6141	  207.00	  112.88	 -549.27	  111.83
     11.6475	  195.00	  112.70	 -549.27	  111.65
     11.6809	  218.00	  112.53	 -549.27	  111.48
     11.7144	  209.00	  112.35	 -549.27	  111.30
     11.7478	  210.00	  112.17	 -549.27	  111.12
     11.7812	  209.00	  111.99	 -549.27	  110.94
     11.8146	  202.00	  111.82	 -549.27	  110.77
     11.8481	  216.00	  111.64	 -549.27	  110.59
     11.8815	  212.00	  111.46	 -549.27	  110.41
     11.9149	  211.00	  111.29	 -549.27	  110.24
     11.9483	  191.00	  111.11	 -549.27	  110.06
     11.9817	  176.00	  110.93	 -549.27	  109.89
     12.0152	  180.00	  110.76	 -549.27	  109.71
     12.0486	  200.00	  110.58	 -549.27	  109.53
     12.0820	  175.00	  110.41	 -549.27	  109.36
     12.1154	  192.00	  110.23	 -549.27	  109.18
     12.1489	  190.00	  110.06	 -549.27	  109.01
     12.1823	  202.00	  109.88	 -549.27	  108.83
     12.2157	  181.00	  109.71	 -549.27	  108.66
     12.2491	  170.00	  109.53	 -549.27	  108.48
     12.2825	  203.00	  109.36	 -549.27	  108.31
     12.3160	  170.00	  109.18	 -549.27	  108.14
     12.3494	  205.00	  109.01	 -549.27	  107.96
     12.3828	  191.00	  108.84	 -549.27	  107.79
     12.4162	  191.00	  108.66	 -549.27	  107.61
     12.4497	  196.00	  108.49	 -549.27	  107.44
     12.4831	  182.00	  108.32	 -549.27	  107.27
     12.5165	  206.00	  108.14	 -549.27	  107.10
     12.5499	  195.00	  107.97	 -549.27	  106.92
     12.5833	  175.00	  107.80	 -549.27	  106.75
     12.6168	  196.00	  107.63	 -549.27	  106.58
     12.6502	  177.00	  107.45	 -549.27	  106.41
     12.6836	  176.00	  107.28	 -549.27	  106.23
     12.7170	  205.00	  107.11	 -549.27	  106.06
     12.7505	  203.00	  106.94	 -549.27	  105.89
     12.7839	  176.00	  106.77	 -549.27	  105.72
     12.8173	  162.00	  106.60	 -549.27	  105.55
     12.8507	  203.00	  106.43	 -549.27	  105.38
     12.8841	  182.00	  106.26	 -549.27	  105.21
     12.9176	  194.00	  106.08	 -549.27	  105.04
     12.9510	  183.00	  105.91	 -549.27	  104.87
     12.9844	  175.00	  105.74	 -549.27	  104.70
     13.0178	  179.00	  105.57	 -549.27	  104.53
     13.0513	  159.00	  105.40	 -549.27	  104.36
     13.0847	  186.00	  105.23	 -549.27	  104.19
     13.1181	  176.00	  105.07	 -549.27	  104.02
     13.1515	  177.00	  104.90	 -549.27	  103.85
     13.1850	  183.00	  104.73	 -549.27	  103.68
     13.2184	  178.00	  104.56	 -549.27	  103.51
     13.2518	  200.00	  104.39	 -549.27	  103.34
     13.2852	  193.00	  104.22	 -549.27	  103.17
     13.3186	  153.00	  104.05	 -549.27	  103.01
     13.3521	  176.00	  103.89	 -549.27	  102.84
     13.3855	  177.00	  103.72	 -549.27	  102.67
     13.4189	  167.00	  103.55	 -549.27	  102.50
     13.4523	  183.00	  103.38	 -549.27	  102.33
     13.4858	  216.00	  103.22	 -549.27	  102.17
     13.5192	  157.00	  103.05	 -549.27	  102.00
     13.5526	  152.00	  102.88	 -549.27	  101.83
     13.5860	  178.00	  102.72	 -549.27	  101.67
     13.6194	  197.00	  102.55	 -549.27	  101.50
     13.6529	  204.00	  102.38	 -549.27	  101.33
     13.6863	  149.00	  102.22	 -549.27	  101.17
     13.7197	  195.00	  102.05	 -549.27	  101.00
     13.7531	  169.00	  101.89	 -549.27	  100.84
     13.7866	  144.00	  101.72	 -549.27	  100.67
     13.8200	  166.00	  101.56	 -549.27	  100.51
     13.8534	  162.00	  101.39	 -549.27	  100.34
     13.8868	  172.00	  101.23	 -549.27	  100.18
     13.9202	  176.00	  101.06	 -549.27	  100.01
     13.9537	  154.00	  100.90	 -549.27	   99.85
     13.9871	  149.00	  100.73	 -549.27	   99.68
     14.0205	  167.00	  106.48	 -488.76	   99.52
     14.0539	  173.00	  106.52	 -482.80	   99.36
     14.0874	  195.00	  106.58	 -460.85	   99.19
     14.1208	  145.00	  106.64	 -510.91	   99.03
     14.1542	  171.00	  106.72	 -484.99	   98.87
     14.1876	  155.00	  106.81	 -501.08	   98.70
     14.2211	  159.00	  106.91	 -497.18	   98.54
     14.2545	  175.00	  107.03	 -481.30	   98.38
     14.2879	  166.00	  107.17	 -490.44	   98.21
     14.3213	  145.00	  107.32	 -511.60	   98.05
     14.3547	  169.00	  107.50	 -487.77	   97.89
     14.3882	  184.00	  107.69	 -472.97	   97.73
     14.4216	  177.00	  107.91	 -480.19	   97.57
     14.4550	  166.00	  108.16	 -491.43	   97.40
     14.4884	  178.00	  108.43	 -479.70	   97.24
     14.5219	  162.00	  108.73	 -496.01	   97.08
     14.5553	  142.00	  109.07	 -516.34	   96.92
     14.5887	  163.00	  109.44	 -495.71	   96.76
     14.6221	  168.00	  109.85	 -491.12	   96.60
     14.6555	  162.00	  110.30	 -497.57	   96.44
     14.6890	  169.00	  110.80	 -491.07	   96.28
     14.7224	  158.00	  111.35	 -502.62	   96.12
     14.7558	  162.00	  111.96	 -499.23	   95.96
     14.7892	  133.00	  112.63	 -528.91	   95.80
     14.8227	  170.00	  113.38	 -492.65	   95.64
     14.8561	  156.00	  114.21	 -507.48	   95.48
     14.8895	  167.00	  115.12	 -497.40	   95.32
     14.9229	  145.00	  116.14	 -520.41	   95.16
     14.9563	  148.00	  117.27	 -518.55	   95.00
     14.9898	  163.00	  118.53	 -504.81	   94.85
     15.0232	  162.00	  119.94	 -507.21	   94.69
     15.0566	  164.00	  121.52	 -506.79	   94.53
     15.0900	  144.00	  123.28	 -528.56	   94.37
     15.1235	  163.00	  125.27	 -511.55	   94.21
     15.1569	  136.00	  127.52	 -540.79	   94.06
     15.1903	  172.00	  130.07	 -507.34	   93.90
     15.2237	  166.00	  132.96	 -516.24	   93.74
     15.2571	  167.00	  136.27	 -518.55	   93.58
     15.2906	  154.00	  140.07	 -535.35	   93.43
     15.3240	  173.00	  144.46	 -520.74	   93.27
     15.3574	  169.00	  149.56	 -529.83	   93.11
     15.3908	  181.00	  155.52	 -523.80	   92.96
     15.4243	  195.00	  162.54	 -516.81	   92.80
     15.4577	  202.00	  170.87	 -518.15	   92.65
     15.4911	  216.00	  180.86	 -514.14	   92.49
     15.5245	  224.00	  192.95	 -518.22	   92.33
     15.5580	  213.00	  207.75	 -544.02	   92.18
     15.5914	  261.00	  226.11	 -514.39	   92.02
     15.6248	  235.00	  249.26	 -563.53	   91.87
     15.6582	  249.00	  278.99	 -579.26	   91.71
     15.6916	  319.00	  318.13	 -548.40	   91.56
     15.7251	  290.00	  371.20	 -630.47	   91.41
     15.7585	  424.00	  445.48	 -570.75	   91.25
     15.7919	  497.00	  552.28	 -604.56	   91.10
     15.8253	  633.00	  707.95	 -624.23	   90.94
     15.8588	  825.00	  933.22	 -657.49	   90.79
     15.8922	 1171.00	 1246.70	 -624.97	   90.64
     15.9256	 1546.00	 1639.79	 -643.06	   90.48
     15.9590	 1718.00	 2020.02	 -851.30	   90.33
     15.9924	 1849.00	 2197.10	 -897.37	   90.18
     16.0259	 1816.00	 2056.15	 -789.43	   90.03
     16.0593	 1528.00	 1697.43	 -718.71	   89.87
     16.0927	 1176.00	 1302.46	 -675.73	   89.72
     16.1261	  932.00	  976.23	 -593.51	   89.57
     16.1596	  700.00	  738.03	 -587.31	   89.42
     16.1930	  551.00	  572.31	 -570.59	   89.26
     16.2264	  419.00	  458.44	 -588.71	   89.11
     16.2598	  365.00	  379.35	 -563.62	   88.96
     16.2932	  304.00	  323.03	 -568.30	   88.81
     16.3267	  286.00	  281.63	 -544.90	   88.66
     16.3601	  225.00	  250.26	 -574.53	   88.51
     16.3935	  236.00	  225.87	 -539.14	   88.36
     16.4269	  205.00	  206.51	 -550.78	   88.21
     16.4604	  204.00	  190.89	 -536.16	   88.06
     16.4938	  171.00	  178.10	 -556.37	   87.91
     16.5272	  154.00	  167.50	 -562.77	   87.76
     16.5606	  193.00	  158.62	 -514.89	   87.61
     16.5941	  167.00	  151.10	 -533.37	   87.46
     16.6275	  141.00	  144.68	 -552.95	   87.31
     16.6609	  144.00	  139.15	 -544.42	   87.16
     16.6943	  144.00	  134.35	 -539.62	   87.01
     16.7277	  142.00	  130.15	 -537.42	   86.86
     16.7612	  119.00	  126.46	 -556.74	   86.71
     16.7946	  151.00	  123.20	 -521.47	   86.57
     16.8280	  116.00	  120.29	 -553.57	   86.42
     16.8614	  128.00	  117.70	 -538.97	   86.27
     16.8949	  126.00	  115.36	 -538.64	   86.12
     16.9283	  140.00	  113.26	 -522.53	   85.97
     16.9617	  116.00	  111.35	 -544.62	   85.83
     16.9951	  114.00	  109.61	 -544.88	   85.68
     17.0285	  124.00	  108.02	 -533.29	   85.53
     17.0620	  128.00	  106.56	 -527.84	   85.38
     17.0954	  122.00	  105.22	 -532.49	   85.24
     17.1288	  112.00	  103.98	 -541.26	   85.09
     17.1622	  121.00	  102.84	 -531.11	   84.95
     17.1957	  111.00	  101.77	 -540.05	   84.80
     17.2291	  115.00	  100.78	 -535.06	   84.65
     17.2625	  119.00	   99.86	 -530.13	   84.51
     17.2959	   97.00	   98.99	 -551.26	   84.36
     17.3293	  118.00	   98.18	 -529.45	   84.22
     17.3628	   95.00	   97.41	 -551.69	   84.07
     17.3962	  113.00	   96.69	 -532.96	   83.93
     17.4296	  114.00	   96.01	 -531.28	   83.78
     17.4630	   99.00	   95.36	 -545.64	   83.64
     17.4965	  124.00	   94.75	 -520.02	   83.49
     17.5299	  110.00	   94.17	 -533.44	   83.35
     17.5633	  113.00	   93.61	 -529.89	   83.20
     17.5967	  119.00	   93.08	 -523.36	   83.06
     17.6301	  112.00	   92.58	 -529.85	   82.91
     17.6636	   97.00	   92.09	 -544.37	   82.77
     17.6970	  114.00	   91.63	 -526.91	   82.63
     17.7304	  109.00	   91.19	 -531.46	   82.48
     17.7638	  109.00	   90.76	 -531.03	   82.34
     17.7973	  104.00	   90.34	 -535.62	   82.20
     17.8307	   89.00	   89.95	 -550.22	   82.06
     17.8641	   98.00	   89.56	 -540.84	   81.91
     17.8975	   89.00	   89.19	 -549.46	   81.77
     17.9310	   89.00	   88.83	 -549.10	   81.63
     17.9644	  105.00	   88.48	 -532.76	   81.49
     17.9978	  112.00	   88.14	 -525.42	   81.34
     18.0312	  110.00	   87.82	 -527.09	   81.20
     18.0646	   84.00	   87.50	 -552.77	   81.06
     18.0981	  102.00	   87.19	 -534.46	   80.92
     18.1315	  114.00	   86.88	 -522.16	   80.78
     18.1649	  100.00	   86.59	 -535.86	   80.64
     18.1983	  102.00	   86.30	 -533.57	   80.50
     18.2318	   88.00	   86.02	 -547.29	   80.36
     18.2652	  101.00	   85.74	 -534.02	   80.22
     18.2986	   96.00	   85.47	 -538.75	   80.08
     18.3320	   95.00	   85.21	 -539.49	   79.94
     18.3654	   94.00	   84.95	 -540.23	   79.80
     18.3989	   96.00	   84.70	 -537.97	   79.66
     18.4323	   85.00	   84.45	 -548.73	   79.52
     18.4657	   86.00	   84.21	 -547.48	   79.38
     18.4991	  105.00	   83.97	 -528.24	   79.24
     18.5326	  100.00	   83.73	 -533.01	   79.10
     18.5660	   87.00	   83.50	 -545.78	   78.96
     18.5994	  104.00	   83.27	 -528.55	   78.82
     18.6328	   92.00	   83.05	 -540.33	   78.68
     18.6662	   96.00	   82.83	 -536.10	   78.55
     18.6997	   98.00	   82.61	 -533.89	   78.41
     18.7331	   96.00	   82.40	 -535.67	   78.27
     18.7665	   75.00	   82.19	 -556.46	   78.13
     18.7999	   92.00	   81.98	 -539.25	   77.99
     18.8334	   99.00	   81.77	 -532.05	   77.86
     18.8668	   85.00	   81.57	 -545.84	   77.72
     18.9002	  106.00	   81.37	 -524.64	   77.58
     18.9336	   75.00	   81.17	 -555.44	   77.45
     18.9671	   83.00	   80.97	 -547.25	   77.31
     19.0005	   85.00	   80.78	 -545.05	   77.17
     19.0339	   76.00	   80.59	 -553.86	   77.04
     19.0673	   73.00	   80.40	 -556.67	   76.90
     19.1007	   91.00	   80.21	 -538.48	   76.76
     19.1342	   73.00	   80.02	 -556.30	   76.63
     19.1676	   97.00	   79.84	 -532.11	   76.49
     19.2010	   96.00	   79.65	 -532.93	   76.36
     19.2344	   86.00	   79.47	 -542.75	   76.22
     19.2679	   66.00	   79.29	 -562.57	   76.09
     19.3013	   72.00	   79.11	 -556.39	   75.95
     19.3347	   89.00	   78.94	 -539.21	   75.82
     19.3681	   76.00	   78.76	 -552.04	   75.68
     19.4015	   98.00	   78.59	 -529.86	   75.55
     19.4350	   99.00	   78.42	 -528.69	   75.41
     19.4684	  100.00	   78.24	 -527.52	   75.28
     19.5018	   79.00	   78.07	 -548.35	   75.15
     19.5352	   92.00	   77.91	 -535.18	   75.01
     19.5687	   68.00	   77.74	 -559.01	   74.88
     19.6021	   84.00	   77.57	 -542.85	   74.75
     19.6355	   89.00	   77.41	 -537.68	   74.61
     19.6689	   74.00	   77.24	 -552.51	   74.48
     19.7023	   74.00	   77.08	 -552.35	   74.35
     19.7358	   74.00	   76.91	 -552.19	   74.21
     19.7692	   74.00	   76.75	 -552.03	   74.08
     19.8026	   86.00	   76.59	 -539.87	   73.95
     19.8360	   82.00	   74.87	 -542.14	   73.82
     19.8695	   96.00	   74.73	 -528.01	   73.69
     19.9029	   94.00	   74.60	 -529.88	   73.55
     19.9363	   95.00	   74.47	 -528.75	   73.42
     19.9697	  101.00	   74.34	 -522.61	   73.29
     20.0032	   75.00	   74.21	 -548.48	   73.16
     20.0366	   75.00	   74.08	 -548.35	   73.03
     20.0700	   86.00	   73.95	 -537.22	   72.90
     20.1034	   76.00	   73.82	 -547.09	   72.77
     20.1368	  105.00	   73.69	 -517.96	   72.64
     20.1703	   74.00	   73.55	 -548.83	   72.51
     20.2037	   75.00	   73.42	 -547.70	   72.38
     20.2371	   77.00	   73.29	 -545.57	   72.25
     20.2705	   85.00	   73.16	 -537.44	   72.12
     20.3040	   94.00	   73.04	 -528.31	   71.99
     20.3374	   94.00	   72.91	 -528.18	   71.86
     20.3708	   76.00	   72.78	 -546.05	   71.73
     20.4042	   88.00	   72.65	 -533.92	   71.60
     20.4376	   56.00	   72.52	 -565.79	   71.47
     20.4711	   68.00	   72.39	 -553.66	   71.34
     20.5045	   75.00	   72.26	 -546.54	   71.21
     20.5379	   84.00	   72.13	 -537.41	   71.08
     20.5713	   74.00	   72.00	 -547.28	   70.96
     20.6048	   52.00	   71.88	 -569.15	   70.83
     20.6382	   97.00	   71.75	 -524.02	   70.70
     20.6716	   81.00	   71.62	 -539.89	   70.57
     20.7050	   72.00	   71.49	 -548.77	   70.44
     20.7384	   73.00	   71.37	 -547.64	   70.32
     20.7719	   78.00	   71.24	 -542.51	   70.19
     20.8053	   84.00	   71.11	 -536.39	   70.06
     20.8387	   70.00	   70.98	 -550.26	   69.94
     20.8721	   69.00	   70.86	 -551.13	   69.81
     20.9056	   86.00	   70.73	 -534.00	   69.68
     20.9390	   76.00	   70.60	 -543.88	   69.56
     20.9724	   64.00	   70.48	 -555.75	   69.43
     21.0058	   75.00	   70.35	 -544.63	   69.30
     21.0392	   69.00	   70.23	 -550.50	   69.18
     21.0727	   74.00	   70.10	 -545.37	   69.05
     21.1061	   68.00	   69.97	 -551.25	   68.93
     21.1395	   63.00	   69.85	 -556.12	   68.80
     21.1729	   61.00	   69.72	 -558.00	   68.68
     21.2064	   76.00	   69.60	 -542.87	   68.55
     21.2398	   78.00	   69.47	 -540.75	   68.43
     21.2732	   60.00	   69.35	 -558.62	   68.30
     21.3066	   73.00	   69.22	 -545.50	   68.18
     21.3401	   75.00	   69.10	 -543.37	   68.05
     21.3735	   66.00	   68.98	 -552.25	   67.93
     21.4069	   75.00	   68.85	 -543.13	   67.80
     21.4403	   69.00	   68.73	 -549.00	   67.68
     21.4737	   76.00	   68.60	 -541.88	   67.56
     21.5072	   68.00	   68.48	 -549.76	   67.43
     21.5406	   68.00	   68.36	 -549.63	   67.31
     21.5740	   82.00	   68.23	 -535.51	   67.19
     21.6074	   62.00	   68.11	 -555.39	   67.06
     21.6409	   77.00	   67.99	 -540.26	   66.94
     21.6743	   61.00	   67.87	 -556.14	   66.82
     21.7077	   66.00	   67.74	 -551.02	   66.69
     21.7411	   59.00	   67.62	 -557.90	   66.57
     21.7745	   50.00	   67.50	 -566.77	   66.45
     21.8080	   76.00	   67.38	 -540.65	   66.33
     21.8414	   64.00	   67.25	 -552.53	   66.21
     21.8748	   60.00	   67.13	 -556.41	   66.08
     21.9082	   75.00	   67.01	 -541.29	   65.96
     21.9417	   49.00	   66.89	 -567.16	   65.84
     21.9751	   58.00	   66.77	 -558.04	   65.72
     22.0085	   64.00	   66.65	 -551.92	   65.60
     22.0419	   63.00	   66.53	 -552.80	   65.48
     22.0753	   76.00	   66.41	 -539.68	   65.36
     22.1088	   77.00	   66.29	 -538.56	   65.24
     22.1422	   66.00	   66.17	 -549.44	   65.12
     22.1756	   73.00	   66.05	 -542.32	   65.00
     22.2090	   69.00	   65.93	 -546.20	   64.88
     22.2425	   65.00	   65.81	 -550.08	   64.76
     22.2759	   76.00	   65.69	 -538.96	   64.64
     22.3093	   70.00	   65.57	 -544.84	   64.52
     22.3427	   55.00	   65.45	 -559.72	   64.40
     22.3762	   61.00	   65.33	 -553.60	   64.28
     22.4096	   69.00	   65.21	 -545.48	   64.16
     22.4430	   68.00	   65.09	 -546.36	   64.04
     22.4764	   69.00	   64.97	 -545.25	   63.92
     22.5098	   65.00	   64.85	 -549.13	   63.80
     22.5433	   68.00	   64.73	 -546.01	   63.69
     22.5767	   82.00	   64.62	 -531.89	   63.57
     22.6101	   69.00	   64.50	 -544.77	   63.45
     22.6435	   54.00	   64.38	 -559.65	   63.33
     22.6770	   58.00	   64.26	 -555.54	   63.21
     22.7104	   58.00	   64.15	 -555.42	   63.10
     22.7438	   50.00	   64.03	 -563.30	   62.98
     22.7772	   70.00	   63.91	 -543.18	   62.86
     22.8106	   79.00	   63.79	 -534.07	   62.75
     22.8441	   60.00	   63.68	 -552.95	   62.63
     22.8775	   60.00	   63.56	 -552.83	   62.51
     22.9109	   52.00	   63.44	 -560.72	   62.40
     22.9443	   74.00	   63.33	 -538.60	   62.28
     22.9778	   60.00	   63.21	 -552.49	   62.16
     23.0112	   60.00	   63.09	 -552.37	   62.05
     23.0446	   61.00	   62.98	 -551.25	   61.93
     23.0780	   64.00	   62.86	 -548.14	   61.81
     23.1114	   64.00	   62.75	 -548.02	   61.70
     23.1449	   56.00	   62.63	 -555.91	   61.58
     23.1783	   72.00	   62.52	 -539.79	   61.47
     23.2117	   65.00	   62.40	 -546.68	   61.35
     23.2451	   65.00	   62.29	 -546.56	   61.24
     23.2786	   50.00	   62.17	 -561.45	   61.12
     23.3120	   76.00	   62.06	 -535.33	   61.01
     23.3454	   55.00	   61.94	 -556.22	   60.89
     23.3788	   66.00	   61.83	 -545.10	   60.78
