 ZnO   Chi2: 11.2163  CELL:    3.25013   3.25013   5.20717   90.0000   90.0000  120.0000   SPGR: P 63 m c               TEMP:      0.00
  1   3890     1.54060     1.54439     0.00000    -0.08078     0.00000    0
    63     0     1
       0.00000      15.00000
 2Theta	Yobs	Ycal	Yobs-Ycal	Backg	Posr	(hkl)	K
     20.0030	   390.0	   436.6	 -2948.3	   379.9
     20.0364	   440.0	   436.5	 -2898.3	   379.9
     20.0699	   404.0	   436.4	 -2934.2	   379.8
     20.1033	   398.0	   436.4	 -2940.1	   379.7
     20.1367	   402.0	   436.3	 -2936.1	   379.7
     20.1701	   420.0	   436.3	 -2918.0	   379.6
     20.2035	   408.0	   436.2	 -2930.0	   379.6
     20.2370	   417.0	   436.2	 -2920.9	   379.5
     20.2704	   418.0	   436.1	 -2919.9	   379.5
     20.3038	   381.0	   436.1	 -2956.8	   379.4
     20.3372	   435.0	   436.0	 -2902.8	   379.4
     20.3707	   390.0	   436.0	 -2947.7	   379.3
     20.4041	   398.0	   435.9	 -2939.7	   379.3
     20.4375	   403.0	   435.9	 -2934.6	   379.2
     20.4709	   416.0	   435.8	 -2921.6	   379.1
     20.5044	   394.0	   435.7	 -2943.5	   379.1
     20.5378	   399.0	   435.7	 -2938.4	   379.0
     20.5712	   388.0	   435.6	 -2949.4	   379.0
     20.6046	   385.0	   435.6	 -2952.3	   378.9
     20.6380	   400.0	   435.5	 -2937.3	   378.9
     20.6715	   408.0	   435.5	 -2929.2	   378.8
     20.7049	   407.0	   435.4	 -2930.2	   378.8
     20.7383	   406.0	   435.4	 -2931.1	   378.7
     20.7717	   383.0	   435.3	 -2954.1	   378.7
     20.8052	   410.0	   435.3	 -2927.0	   378.6
     20.8386	   419.0	   435.2	 -2918.0	   378.6
     20.8720	   394.0	   435.2	 -2942.9	   378.5
     20.9054	   411.0	   435.1	 -2925.8	   378.4
     20.9388	   406.0	   435.0	 -2930.8	   378.4
     20.9723	   391.0	   435.0	 -2945.7	   378.3
     21.0057	   387.0	   434.9	 -2949.7	   378.3
     21.0391	   403.0	   434.9	 -2933.6	   378.2
     21.0725	   367.0	   434.8	 -2969.6	   378.2
     21.1060	   409.0	   434.8	 -2927.5	   378.1
     21.1394	   409.0	   434.7	 -2927.5	   378.1
     21.1728	   405.0	   434.7	 -2931.4	   378.0
     21.2062	   419.0	   434.6	 -2917.4	   378.0
     21.2396	   440.0	   434.6	 -2896.3	   377.9
     21.2731	   384.0	   434.5	 -2952.3	   377.9
     21.3065	   399.0	   434.5	 -2937.2	   377.8
     21.3399	   380.0	   434.4	 -2956.1	   377.7
     21.3733	   381.0	   434.3	 -2955.1	   377.7
     21.4068	   370.0	   434.3	 -2966.0	   377.6
     21.4402	   442.0	   434.2	 -2894.0	   377.6
     21.4736	   450.0	   434.2	 -2885.9	   377.5
     21.5070	   410.0	   434.1	 -2925.9	   377.5
     21.5404	   382.0	   434.1	 -2953.8	   377.4
     21.5739	   379.0	   434.0	 -2956.8	   377.4
     21.6073	   400.0	   434.0	 -2935.7	   377.3
     21.6407	   429.0	   433.9	 -2906.7	   377.3
     21.6741	   381.0	   433.9	 -2954.6	   377.2
     21.7076	   440.0	   433.8	 -2895.6	   377.2
     21.7410	   344.0	   433.7	 -2991.5	   377.1
     21.7744	   362.0	   433.7	 -2973.4	   377.0
     21.8078	   421.0	   433.6	 -2914.4	   377.0
     21.8413	   404.0	   433.6	 -2931.3	   376.9
     21.8747	   399.0	   433.5	 -2936.3	   376.9
     21.9081	   378.0	   433.5	 -2957.2	   376.8
     21.9415	   404.0	   433.4	 -2931.2	   376.8
     21.9749	   387.0	   433.4	 -2948.1	   376.7
     22.0084	   382.0	   433.3	 -2953.1	   376.7
     22.0418	   423.0	   433.3	 -2912.0	   376.6
     22.0752	   367.0	   433.2	 -2968.0	   376.6
     22.1086	   444.0	   433.2	 -2890.9	   376.5
     22.1421	   433.0	   433.1	 -2901.9	   376.4
     22.1755	   373.0	   433.0	 -2961.8	   376.4
     22.2089	   407.0	   433.0	 -2927.7	   376.3
     22.2423	   420.0	   432.9	 -2914.7	   376.3
     22.2757	   403.0	   432.9	 -2931.6	   376.2
     22.3092	   394.0	   432.8	 -2940.6	   376.2
     22.3426	   382.0	   432.8	 -2952.5	   376.1
     22.3760	   395.0	   432.7	 -2939.5	   376.1
     22.4094	   446.0	   432.7	 -2888.4	   376.0
     22.4429	   414.0	   432.6	 -2920.4	   376.0
     22.4763	   382.0	   432.6	 -2952.3	   375.9
     22.5097	   419.0	   432.5	 -2915.3	   375.9
     22.5431	   422.0	   432.5	 -2912.2	   375.8
     22.5765	   390.0	   432.4	 -2944.1	   375.7
     22.6100	   397.0	   432.3	 -2937.1	   375.7
     22.6434	   406.0	   432.3	 -2928.0	   375.6
     22.6768	   400.0	   432.2	 -2934.0	   375.6
     22.7102	   417.0	   432.2	 -2916.9	   375.5
     22.7437	   439.0	   432.1	 -2894.9	   375.5
     22.7771	   394.0	   432.1	 -2939.8	   375.4
     22.8105	   439.0	   432.0	 -2894.8	   375.4
     22.8439	   409.0	   432.0	 -2924.7	   375.3
     22.8773	   413.0	   431.9	 -2920.7	   375.3
     22.9108	   421.0	   431.9	 -2912.6	   375.2
     22.9442	   396.0	   431.8	 -2937.6	   375.2
     22.9776	   405.0	   431.8	 -2928.5	   375.1
     23.0110	   404.0	   431.7	 -2929.4	   375.0
     23.0445	   403.0	   431.6	 -2930.4	   375.0
     23.0779	   375.0	   431.6	 -2958.3	   374.9
     23.1113	   420.0	   431.5	 -2913.3	   374.9
     23.1447	   414.0	   431.5	 -2919.2	   374.8
     23.1782	   398.0	   431.4	 -2935.2	   374.8
     23.2116	   381.0	   431.4	 -2952.1	   374.7
     23.2450	   432.0	   431.3	 -2901.1	   374.7
     23.2784	   407.0	   431.3	 -2926.0	   374.6
     23.3118	   397.0	   431.2	 -2936.0	   374.6
     23.3453	   414.0	   431.2	 -2918.9	   374.5
     23.3787	   409.0	   431.1	 -2923.9	   374.5
     23.4121	   393.0	   431.0	 -2939.8	   374.4
     23.4455	   389.0	   431.0	 -2943.7	   374.3
     23.4790	   418.0	   430.9	 -2914.7	   374.3
     23.5124	   394.0	   430.9	 -2938.6	   374.2
     23.5458	   455.0	   430.8	 -2877.6	   374.2
     23.5792	   408.0	   430.8	 -2924.5	   374.1
     23.6126	   413.0	   430.7	 -2919.5	   374.1
     23.6461	   390.0	   430.7	 -2942.4	   374.0
     23.6795	   422.0	   430.6	 -2910.4	   374.0
     23.7129	   429.0	   430.6	 -2903.3	   373.9
     23.7463	   390.0	   430.5	 -2942.3	   373.9
     23.7798	   374.0	   430.5	 -2958.2	   373.8
     23.8132	   409.0	   430.4	 -2923.2	   373.7
     23.8466	   392.0	   430.3	 -2940.1	   373.7
     23.8800	   405.0	   430.3	 -2927.0	   373.6
     23.9134	   433.0	   430.2	 -2899.0	   373.6
     23.9469	   420.0	   430.2	 -2911.9	   373.5
     23.9803	   427.0	   430.1	 -2904.9	   373.5
     24.0137	   368.0	   430.1	 -2963.8	   373.4
     24.0471	   391.0	   430.0	 -2940.8	   373.4
     24.0806	   420.0	   430.0	 -2911.7	   373.3
     24.1140	   394.0	   429.9	 -2937.7	   373.3
     24.1474	   364.0	   429.9	 -2967.6	   373.2
     24.1808	   439.0	   429.8	 -2892.6	   373.2
     24.2143	   378.0	   429.8	 -2953.5	   373.1
     24.2477	   413.0	   429.7	 -2918.4	   373.0
     24.2811	   417.0	   429.6	 -2914.4	   373.0
     24.3145	   408.0	   429.6	 -2923.3	   372.9
     24.3479	   412.0	   429.5	 -2919.3	   372.9
     24.3814	   392.0	   429.5	 -2939.2	   372.8
     24.4148	   378.0	   429.4	 -2953.2	   372.8
     24.4482	   397.0	   429.4	 -2934.1	   372.7
     24.4816	   425.0	   429.3	 -2906.1	   372.7
     24.5151	   409.0	   429.3	 -2922.0	   372.6
     24.5485	   394.0	   429.2	 -2937.0	   372.6
     24.5819	   439.0	   429.2	 -2891.9	   372.5
     24.6153	   390.0	   429.1	 -2940.9	   372.5
     24.6487	   432.0	   429.1	 -2898.8	   372.4
     24.6822	   432.0	   429.0	 -2898.7	   372.3
     24.7156	   414.0	   428.9	 -2916.7	   372.3
     24.7490	   407.0	   428.9	 -2923.6	   372.2
     24.7824	   400.0	   428.8	 -2930.6	   372.2
     24.8159	   411.0	   428.8	 -2919.5	   372.1
     24.8493	   422.0	   428.7	 -2908.5	   372.1
     24.8827	   435.0	   428.7	 -2895.4	   372.0
     24.9161	   438.0	   428.6	 -2892.4	   372.0
     24.9495	   406.0	   428.6	 -2924.3	   371.9
     24.9830	   403.0	   428.5	 -2927.3	   371.9
     25.0164	   391.0	   428.5	 -2939.2	   371.8
     25.0498	   392.0	   428.4	 -2938.2	   371.8
     25.0832	   404.0	   428.4	 -2926.1	   371.7
     25.1167	   425.0	   428.3	 -2905.0	   371.6
     25.1501	   410.0	   428.2	 -2920.0	   371.6
     25.1835	   448.0	   428.2	 -2881.9	   371.5
     25.2169	   428.0	   428.1	 -2901.9	   371.5
     25.2504	   384.0	   428.1	 -2945.8	   371.4
     25.2838	   404.0	   428.0	 -2925.8	   371.4
     25.3172	   396.0	   428.0	 -2933.7	   371.3
     25.3506	   414.0	   427.9	 -2915.7	   371.3
     25.3840	   422.0	   427.9	 -2907.6	   371.2
     25.4175	   422.0	   427.8	 -2907.6	   371.2
     25.4509	   420.0	   427.8	 -2909.5	   371.1
     25.4843	   398.0	   427.7	 -2931.5	   371.1
     25.5177	   393.0	   427.6	 -2936.4	   371.0
     25.5512	   402.0	   427.6	 -2927.3	   370.9
     25.5846	   437.0	   427.5	 -2892.3	   370.9
     25.6180	   403.0	   427.5	 -2926.2	   370.8
     25.6514	   442.0	   427.4	 -2887.2	   370.8
     25.6848	   419.0	   427.4	 -2910.1	   370.7
     25.7183	   397.0	   427.3	 -2932.1	   370.7
     25.7517	   452.0	   427.3	 -2877.0	   370.6
     25.7851	   488.0	   427.2	 -2841.0	   370.6
     25.8185	   456.0	   427.2	 -2872.9	   370.5
     25.8520	   377.0	   427.1	 -2951.9	   370.5
     25.8854	   424.0	   427.1	 -2904.8	   370.4
     25.9188	   454.0	   427.0	 -2874.8	   370.3
     25.9522	   403.0	   426.9	 -2925.7	   370.3
     25.9856	   416.0	   426.9	 -2912.6	   370.2
     26.0191	   465.0	   426.8	 -2863.6	   370.2
     26.0525	   391.0	   426.8	 -2937.5	   370.1
     26.0859	   404.0	   426.7	 -2924.5	   370.1
     26.1193	   427.0	   426.7	 -2901.4	   370.0
     26.1528	   438.0	   426.6	 -2890.4	   370.0
     26.1862	   411.0	   426.6	 -2917.3	   369.9
     26.2196	   450.0	   426.5	 -2878.3	   369.9
     26.2530	   452.0	   426.5	 -2876.2	   369.8
     26.2864	   428.0	   426.4	 -2900.2	   369.8
     26.3199	   416.0	   426.4	 -2912.1	   369.7
     26.3533	   406.0	   426.3	 -2922.0	   369.6
     26.3867	   427.0	   426.2	 -2901.0	   369.6
     26.4201	   374.0	   426.2	 -2953.9	   369.5
     26.4536	   447.0	   426.1	 -2880.9	   369.5
     26.4870	   412.0	   426.1	 -2915.8	   369.4
     26.5204	   420.0	   426.0	 -2907.8	   369.4
     26.5538	   442.0	   426.0	 -2885.7	   369.3
     26.5873	   406.0	   425.9	 -2921.7	   369.3
     26.6207	   437.0	   425.9	 -2890.6	   369.2
     26.6541	   389.0	   425.8	 -2938.6	   369.2
     26.6875	   428.0	   433.2	 -2907.0	   369.1
     26.7209	   442.0	   433.3	 -2893.0	   369.1
     26.7544	   450.0	   433.3	 -2885.1	   369.0
     26.7878	   442.0	   437.1	 -2896.9	   368.9
     26.8212	   440.0	   437.2	 -2899.0	   368.9
     26.8546	   470.0	   437.3	 -2869.1	   368.8
     26.8881	   420.0	   437.5	 -2919.2	   368.8
     26.9215	   434.0	   437.6	 -2905.3	   368.7
     26.9549	   434.0	   437.7	 -2905.4	   368.7
     26.9883	   450.0	   437.8	 -2889.6	   368.6
     27.0217	   409.0	   437.9	 -2930.7	   368.6
     27.0552	   429.0	   438.1	 -2910.8	   368.5
     27.0886	   404.0	   438.2	 -2935.9	   368.5
     27.1220	   370.0	   438.3	 -2970.1	   368.4
     27.1554	   424.0	   438.5	 -2916.2	   368.4
     27.1889	   417.0	   438.6	 -2923.4	   368.3
     27.2223	   429.0	   438.8	 -2911.5	   368.2
     27.2557	   439.0	   438.9	 -2901.7	   368.2
     27.2891	   406.0	   439.1	 -2934.8	   368.1
     27.3225	   422.0	   439.2	 -2919.0	   368.1
     27.3560	   444.0	   439.4	 -2897.2	   368.0
     27.3894	   422.0	   439.6	 -2919.3	   368.0
     27.4228	   440.0	   439.8	 -2901.5	   367.9
     27.4562	   432.0	   439.9	 -2909.7	   367.9
     27.4897	   427.0	   440.1	 -2914.9	   367.8
     27.5231	   442.0	   440.3	 -2900.1	   367.8
     27.5565	   408.0	   440.5	 -2934.3	   367.7
     27.5899	   444.0	   440.7	 -2898.5	   367.6
     27.6234	   406.0	   441.0	 -2936.7	   367.6
     27.6568	   443.0	   441.2	 -2899.9	   367.5
     27.6902	   417.0	   441.4	 -2926.2	   367.5
     27.7236	   417.0	   441.6	 -2926.4	   367.4
     27.7570	   442.0	   441.9	 -2901.6	   367.4
     27.7905	   433.0	   442.1	 -2910.9	   367.3
     27.8239	   448.0	   442.4	 -2896.2	   367.3
     27.8573	   429.0	   442.7	 -2915.4	   367.2
     27.8907	   438.0	   442.9	 -2906.7	   367.2
     27.9242	   424.0	   443.2	 -2921.0	   367.1
     27.9576	   425.0	   443.5	 -2920.3	   367.1
     27.9910	   452.0	   443.8	 -2893.6	   367.0
     28.0244	   423.0	   444.1	 -2922.9	   366.9
     28.0578	   458.0	   444.5	 -2888.2	   366.9
     28.0913	   441.0	   444.8	 -2905.5	   366.8
     28.1247	   446.0	   445.1	 -2900.9	   366.8
     28.1581	   448.0	   445.5	 -2899.2	   366.7
     28.1915	   474.0	   445.9	 -2873.6	   366.7
     28.2250	   453.0	   446.2	 -2895.0	   366.6
     28.2584	   461.0	   446.6	 -2887.4	   366.6
     28.2918	   477.0	   447.0	 -2871.8	   366.5
     28.3252	   426.0	   447.4	 -2923.2	   366.5
     28.3586	   428.0	   447.9	 -2921.6	   366.4
     28.3921	   465.0	   448.3	 -2885.1	   366.4
     28.4255	   494.0	   448.8	 -2856.5	   366.3
     28.4589	   462.0	   449.3	 -2889.0	   366.2
     28.4923	   437.0	   449.8	 -2914.5	   366.2
     28.5258	   449.0	   450.3	 -2903.0	   366.1
     28.5592	   452.0	   450.8	 -2900.5	   366.1
     28.5926	   450.0	   451.3	 -2903.1	   366.0
     28.6260	   453.0	   451.9	 -2900.7	   366.0
     28.6595	   435.0	   452.5	 -2919.2	   365.9
     28.6929	   423.0	   453.1	 -2931.9	   365.9
     28.7263	   443.0	   453.7	 -2912.5	   365.8
     28.7597	   457.0	   454.4	 -2899.1	   365.8
     28.7931	   416.0	   455.1	 -2940.8	   365.7
     28.8266	   483.0	   455.8	 -2874.5	   365.7
     28.8600	   488.0	   456.5	 -2870.2	   365.6
     28.8934	   447.0	   457.3	 -2912.0	   365.5
     28.9268	   461.0	   458.0	 -2898.8	   365.5
     28.9603	   446.0	   458.9	 -2914.6	   365.4
     28.9937	   451.0	   459.7	 -2910.5	   365.4
     29.0271	   481.0	   460.6	 -2881.3	   365.3
     29.0605	   452.0	   461.5	 -2911.3	   365.3
     29.0939	   469.0	   462.5	 -2895.2	   365.2
     29.1274	   463.0	   463.5	 -2902.2	   365.2
     29.1608	   447.0	   464.5	 -2919.3	   365.1
     29.1942	   438.0	   465.6	 -2929.3	   365.1
     29.2276	   476.0	   466.7	 -2892.5	   365.0
     29.2611	   496.0	   467.9	 -2873.6	   365.0
     29.2945	   512.0	   469.1	 -2858.9	   364.9
     29.3279	   471.0	   476.8	 -2907.5	   364.8
     29.3613	   463.0	   478.2	 -2916.9	   364.8
     29.3947	   444.0	   482.8	 -2940.6	   364.7
     29.4282	   459.0	   484.4	 -2927.2	   364.7
     29.4616	   474.0	   486.1	 -2913.8	   364.6
     29.4950	   495.0	   487.8	 -2894.6	   364.6
     29.5284	   471.0	   489.6	 -2920.4	   364.5
     29.5619	   498.0	   491.5	 -2895.3	   364.5
     29.5953	   428.0	   493.5	 -2967.3	   364.4
     29.6287	   481.0	   495.6	 -2916.3	   364.4
     29.6621	   499.0	   497.8	 -2900.5	   364.3
     29.6955	   497.0	   500.0	 -2904.8	   364.2
     29.7290	   482.0	   502.4	 -2922.2	   364.2
     29.7624	   495.0	   505.0	 -2911.7	   364.1
     29.7958	   511.0	   507.6	 -2898.3	   364.1
     29.8292	   453.0	   510.4	 -2959.1	   364.0
     29.8627	   455.0	   513.3	 -2960.1	   364.0
     29.8961	   467.0	   516.4	 -2951.1	   363.9
     29.9295	   484.0	   519.7	 -2937.4	   363.9
     29.9629	   511.0	   523.1	 -2913.8	   363.8
     29.9964	   487.0	   526.7	 -2941.5	   363.8
     30.0298	   536.0	   530.6	 -2896.3	   363.7
     30.0632	   547.0	   534.6	 -2889.4	   363.7
     30.0966	   494.0	   539.0	 -2946.7	   363.6
     30.1300	   556.0	   543.5	 -2889.3	   363.5
     30.1635	   486.0	   548.4	 -2964.2	   363.5
     30.1969	   491.0	   553.6	 -2964.4	   363.4
     30.2303	   532.0	   559.1	 -2928.9	   363.4
     30.2637	   524.0	   565.0	 -2942.8	   363.3
     30.2972	   566.0	   571.3	 -2907.1	   363.3
     30.3306	   523.0	   578.1	 -2956.8	   363.2
     30.3640	   542.0	   585.3	 -2945.1	   363.2
     30.3974	   571.0	   593.1	 -2923.8	   363.1
     30.4308	   584.0	   601.4	 -2919.2	   363.1
     30.4643	   561.0	   610.4	 -2951.2	   363.0
     30.4977	   588.0	   620.1	 -2933.9	   363.0
     30.5311	   552.0	   630.6	 -2980.4	   362.9
     30.5645	   591.0	   642.0	 -2952.8	   362.8
     30.5980	   591.0	   654.4	 -2965.2	   362.8
     30.6314	   644.0	   667.9	 -2925.6	   362.7
     30.6648	   662.0	   682.6	 -2922.3	   362.7
     30.6982	   694.0	   698.7	 -2906.4	   362.6
     30.7316	   655.0	   716.3	 -2963.1	   362.6
     30.7651	   717.0	   735.8	 -2920.5	   362.5
     30.7985	   751.0	   757.2	 -2908.0	   362.5
     30.8319	   744.0	   781.0	 -2938.7	   362.4
     30.8653	   715.0	   807.4	 -2994.1	   362.4
     30.8988	   758.0	   836.8	 -2980.5	   362.3
     30.9322	   814.0	   869.8	 -2957.5	   362.3
     30.9656	   820.0	   906.8	 -2988.6	   362.2
     30.9990	   824.0	   948.8	 -3026.5	   362.1
     31.0324	   952.0	   996.4	 -2946.1	   362.1
     31.0659	   966.0	  1050.8	 -2986.6	   362.0
     31.0993	   999.0	  1113.5	 -3016.3	   362.0
     31.1327	  1023.0	  1200.4	 -3079.1	   361.9
     31.1661	  1181.0	  1285.6	 -3006.3	   361.9
     31.1996	  1186.0	  1386.0	 -3101.8	   361.8
     31.2330	  1330.0	  1512.6	 -3084.3	   361.8
     31.2664	  1325.0	  1655.9	 -3232.7	   361.7
     31.2998	  1548.0	  1829.0	 -3182.7	   361.7
     31.3333	  1676.0	  2038.8	 -3264.6	   361.6
     31.3667	  1895.0	  2294.0	 -3300.8	   361.5
     31.4001	  2173.0	  2604.3	 -3333.1	   361.5
     31.4335	  2398.0	  2980.0	 -3483.7	   361.4
     31.4669	  2808.0	  3430.9	 -3524.6	   361.4
     31.5004	  3153.0	  3964.1	 -3712.9	   361.3
     31.5338	  3588.0	  4578.8	 -3892.5	   361.3
     31.5672	  4078.0	  5258.1	 -4081.9	   361.2
     31.6006	  4868.0	  5959.4	 -3993.2	   361.2
     31.6341	  5891.0	  6607.4	 -3618.1	   361.1
     31.6675	  6850.0	  7102.6	 -3154.4	   361.1
     31.7009	  7312.0	  7352.5	 -2942.2	   361.0
     31.7343	  7274.0	  7309.7	 -2937.5	   361.0
     31.7677	  6508.0	  6990.0	 -3383.8	   360.9
     31.8012	  5824.0	  6459.8	 -3537.6	   360.8
     31.8346	  4982.0	  5808.9	 -3728.6	   360.8
     31.8680	  4147.0	  5123.2	 -3877.9	   360.7
     31.9014	  3595.0	  4466.3	 -3773.1	   360.7
     31.9349	  3141.0	  3874.6	 -3635.4	   360.6
     31.9683	  2847.0	  3362.4	 -3417.1	   360.6
     32.0017	  2438.0	  2929.7	 -3393.4	   360.5
     32.0351	  2191.0	  2569.7	 -3280.5	   360.5
     32.0686	  1989.0	  2272.8	 -3185.6	   360.4
     32.1020	  1721.0	  2028.9	 -3209.6	   360.4
     32.1354	  1608.0	  1828.6	 -3122.4	   360.3
     32.1688	  1506.0	  1663.8	 -3059.6	   360.3
     32.2022	  1378.0	  1527.6	 -3051.4	   360.2
     32.2357	  1259.0	  1414.4	 -3057.1	   360.1
     32.2691	  1181.0	  1319.5	 -3040.2	   360.1
     32.3025	  1157.0	  1239.4	 -2984.2	   360.0
     32.3359	  1001.0	  1171.4	 -3072.1	   360.0
     32.3694	  1035.0	  1113.1	 -2979.8	   359.9
     32.4028	   949.0	  1062.8	 -3015.6	   359.9
     32.4362	   958.0	  1019.3	 -2963.1	   359.8
     32.4696	   863.0	   981.5	 -3020.3	   359.8
     32.5030	   859.0	   948.5	 -2991.3	   359.7
     32.5365	   895.0	   919.7	 -2926.4	   359.7
     32.5699	   835.0	   894.4	 -2961.2	   359.6
     32.6033	   840.0	   872.3	 -2934.1	   359.6
     32.6367	   813.0	   852.9	 -2941.7	   359.5
     32.6702	   763.0	   836.0	 -2974.7	   359.4
     32.7036	   769.0	   821.2	 -2954.0	   359.4
     32.7370	   748.0	   808.4	 -2962.1	   359.3
     32.7704	   775.0	   797.3	 -2924.1	   359.3
     32.8038	   754.0	   787.9	 -2935.6	   359.2
     32.8373	   799.0	   779.9	 -2882.6	   359.2
     32.8707	   771.0	   773.3	 -2904.0	   359.1
     32.9041	   766.0	   768.0	 -2903.7	   359.1
     32.9375	   738.0	   763.9	 -2927.6	   359.0
     32.9710	   803.0	   761.0	 -2859.7	   359.0
     33.0044	   789.0	   759.1	 -2871.9	   358.9
     33.0378	   790.0	   758.4	 -2870.2	   358.8
     33.0712	   830.0	   758.8	 -2830.5	   358.8
     33.1046	   798.0	   760.2	 -2864.0	   358.7
     33.1381	   751.0	   762.7	 -2913.5	   358.7
     33.1715	   771.0	   766.4	 -2897.1	   358.6
     33.2049	   786.0	   771.1	 -2886.9	   358.6
     33.2383	   824.0	   777.1	 -2854.9	   358.5
     33.2718	   823.0	   784.3	 -2863.1	   358.5
     33.3052	   852.0	   792.9	 -2842.7	   358.4
     33.3386	   914.0	   802.9	 -2790.7	   358.4
     33.3720	   877.0	   814.5	 -2839.2	   358.3
