 Fe3O4   Chi2:  2.3671  CELL:    8.39871   8.39871   8.39871   90.0000   90.0000   90.0000   SPGR: 227:1                  TEMP:      0.00
  1   2693     1.54060     1.54439     0.00000     0.02073     0.00000    0
    78     0     1
       0.00000      28.00000
 2Theta	Yobs	Ycal	Yobs-Ycal	Backg	Posr	(hkl)	K
     10.0167	  7926.0	  3285.2	 -6390.5	  3159.8
     10.0501	  8105.0	  3285.2	 -6390.5	  3159.8
     10.0836	  7916.0	  3285.2	 -6390.5	  3159.8
     10.1170	  8100.0	  3285.2	 -6390.5	  3159.8
     10.1504	  7943.0	  3285.2	 -6390.5	  3159.8
     10.1838	  8043.0	  3285.2	 -6390.5	  3159.8
     10.2172	  8051.0	  3285.2	 -6390.5	  3159.8
     10.2507	  8026.0	  3285.2	 -6390.5	  3159.8
     10.2841	  8164.0	  3285.2	 -6390.5	  3159.8
     10.3175	  7996.0	  3285.2	 -6390.5	  3159.8
     10.3509	  8097.0	  3285.2	 -6390.5	  3159.8
     10.3844	  8289.0	  3285.2	 -6390.5	  3159.8
     10.4178	  8008.0	  3285.2	 -6390.5	  3159.8
     10.4512	  8267.0	  3285.2	 -6390.5	  3159.8
     10.4846	  8220.0	  3285.2	 -6390.5	  3159.8
     10.5180	  8376.0	  3285.2	 -6390.5	  3159.8
     10.5515	  8393.0	  3285.2	 -6390.5	  3159.8
     10.5849	  8434.0	  3285.2	 -6390.5	  3159.8
     10.6183	  8478.0	  3285.2	 -6390.5	  3159.8
     10.6517	  8499.0	  3285.2	 -6390.5	  3159.8
     10.6852	  8472.0	  3285.2	 -6390.5	  3159.8
     10.7186	  8519.0	  3285.2	 -6390.5	  3159.8
     10.7520	  8583.0	  3285.2	 -6390.5	  3159.8
     10.7854	  8687.0	  3285.2	 -6390.5	  3159.8
     10.8189	  8619.0	  3285.2	 -6390.5	  3159.8
     10.8523	  8727.0	  3285.2	 -6390.5	  3159.8
     10.8857	  8703.0	  3285.2	 -6390.5	  3159.8
     10.9191	  8904.0	  3285.2	 -6390.5	  3159.8
     10.9525	  8613.0	  3285.2	 -6390.5	  3159.8
     10.9860	  8892.0	  3285.2	 -6390.5	  3159.8
     11.0194	  8779.0	  3285.2	 -6390.5	  3159.8
     11.0528	  8825.0	  3285.2	 -6390.5	  3159.8
     11.0862	  8755.0	  3285.2	 -6390.5	  3159.8
     11.1197	  8728.0	  3285.2	 -6390.5	  3159.8
     11.1531	  8876.0	  3285.2	 -6390.5	  3159.8
     11.1865	  9136.0	  3285.2	 -6390.5	  3159.8
     11.2199	  9098.0	  3285.2	 -6390.5	  3159.8
     11.2533	  9084.0	  3285.2	 -6390.5	  3159.8
     11.2868	  9201.0	  3285.2	 -6390.5	  3159.8
     11.3202	  8894.0	  3285.2	 -6390.5	  3159.8
     11.3536	  9068.0	  3285.2	 -6390.5	  3159.8
     11.3870	  9170.0	  3285.2	 -6390.5	  3159.8
     11.4205	  9269.0	  3285.2	 -6390.5	  3159.8
     11.4539	  9250.0	  3285.2	 -6390.5	  3159.8
     11.4873	  9548.0	  3285.2	 -6390.5	  3159.8
     11.5207	  9144.0	  3285.2	 -6390.5	  3159.8
     11.5541	  9332.0	  3285.2	 -6390.5	  3159.8
     11.5876	  9618.0	  3285.2	 -6390.5	  3159.8
     11.6210	  9581.0	  3285.2	 -6390.5	  3159.8
     11.6544	  9704.0	  3285.2	 -6390.5	  3159.8
     11.6878	  9513.0	  3285.2	 -6390.5	  3159.8
     11.7213	  9625.0	  3285.2	 -6390.5	  3159.8
     11.7547	  9836.0	  3285.2	 -6390.5	  3159.8
     11.7881	  9858.0	  3285.2	 -6390.5	  3159.8
     11.8215	  9811.0	  3285.2	 -6390.5	  3159.8
     11.8550	  9848.0	  3285.2	 -6390.5	  3159.8
     11.8884	  9844.0	  3285.2	 -6390.5	  3159.8
     11.9218	  9733.0	  3285.2	 -6390.5	  3159.8
     11.9552	  9924.0	  3285.2	 -6390.5	  3159.8
     11.9886	  9988.0	  3285.2	 -6390.5	  3159.8
     12.0221	 10284.0	  3285.2	 -6390.5	  3159.8
     12.0555	 10155.0	  3285.2	 -6390.5	  3159.8
     12.0889	  9978.0	  3285.2	 -6390.5	  3159.8
     12.1223	 10588.0	  3285.2	 -6390.5	  3159.8
     12.1558	 10291.0	  3285.2	 -6390.5	  3159.8
     12.1892	 10268.0	  3285.2	 -6390.5	  3159.8
     12.2226	 10543.0	  3285.2	 -6390.5	  3159.8
     12.2560	 10467.0	  3285.2	 -6390.5	  3159.8
     12.2894	 10473.0	  3285.2	 -6390.5	  3159.8
     12.3229	 10552.0	  3285.2	 -6390.5	  3159.8
     12.3563	 10609.0	  3285.2	 -6390.5	  3159.8
     12.3897	 10744.0	  3285.2	 -6390.5	  3159.8
     12.4231	 10684.0	  3285.2	 -6390.5	  3159.8
     12.4566	 10769.0	  3285.2	 -6390.5	  3159.8
     12.4900	 10761.0	  3285.2	 -6390.5	  3159.8
     12.5234	 10684.0	  3285.2	 -6390.5	  3159.8
     12.5568	 11203.0	  3285.2	 -6390.5	  3159.8
     12.5902	 10860.0	  3285.2	 -6390.5	  3159.8
     12.6237	 11108.0	  3285.2	 -6390.5	  3159.8
     12.6571	 11272.0	  3285.2	 -6390.5	  3159.8
     12.6905	 11124.0	  3285.2	 -6390.5	  3159.8
     12.7239	 11082.0	  3285.2	 -6390.5	  3159.8
     12.7574	 11358.0	  3285.2	 -6390.5	  3159.8
     12.7908	 11561.0	  3285.2	 -6390.5	  3159.8
     12.8242	 11436.0	  3285.2	 -6390.5	  3159.8
     12.8576	 11514.0	  3285.2	 -6390.5	  3159.8
     12.8910	 11398.0	  3285.2	 -6390.5	  3159.8
     12.9245	 11803.0	  3285.2	 -6390.5	  3159.8
     12.9579	 11690.0	  3285.2	 -6390.5	  3159.8
     12.9913	 11971.0	  3285.2	 -6390.5	  3159.8
     13.0247	 12010.0	  3285.2	 -6390.5	  3159.8
     13.0582	 11884.0	  3285.2	 -6390.5	  3159.8
     13.0916	 11847.0	  3285.2	 -6390.5	  3159.8
     13.1250	 12300.0	  3285.2	 -6390.5	  3159.8
     13.1584	 12171.0	  3285.2	 -6390.5	  3159.8
     13.1919	 12248.0	  3285.2	 -6390.5	  3159.8
     13.2253	 12256.0	  3285.2	 -6390.5	  3159.8
     13.2587	 12419.0	  3285.2	 -6390.5	  3159.8
     13.2921	 12682.0	  3285.2	 -6390.5	  3159.8
     13.3255	 12655.0	  3285.2	 -6390.5	  3159.8
     13.3590	 12570.0	  3285.2	 -6390.5	  3159.8
     13.3924	 12808.0	  3285.2	 -6390.5	  3159.8
     13.4258	 12971.0	  3285.2	 -6390.5	  3159.8
     13.4592	 12776.0	  3285.2	 -6390.5	  3159.8
     13.4927	 12839.0	  3285.2	 -6390.5	  3159.8
     13.5261	 13164.0	  3285.2	 -6390.5	  3159.8
     13.5595	 13046.0	  3285.2	 -6390.5	  3159.8
     13.5929	 13202.0	  3285.2	 -6390.5	  3159.8
     13.6263	 13175.0	  3285.2	 -6390.5	  3159.8
     13.6598	 13361.0	  3285.2	 -6390.5	  3159.8
     13.6932	 13561.0	  3285.2	 -6390.5	  3159.8
     13.7266	 13378.0	  3285.2	 -6390.5	  3159.8
     13.7600	 13622.0	  3285.2	 -6390.5	  3159.8
     13.7935	 13722.0	  3285.2	 -6390.5	  3159.8
     13.8269	 13628.0	  3285.2	 -6390.5	  3159.8
     13.8603	 14070.0	  3285.2	 -6390.5	  3159.8
     13.8937	 13890.0	  3285.2	 -6390.5	  3159.8
     13.9271	 14069.0	  3285.2	 -6390.5	  3159.8
     13.9606	 14177.0	  3285.2	 -6390.5	  3159.8
     13.9940	 14277.0	  3285.2	 -6390.5	  3159.8
     14.0274	 14549.0	  3285.2	 -6390.5	  3159.8
     14.0608	 14617.0	  3285.2	 -6390.5	  3159.8
     14.0943	 14611.0	  3285.2	 -6390.5	  3159.8
     14.1277	 14712.0	  3285.2	 -6390.5	  3159.8
     14.1611	 14819.0	  3285.2	 -6390.5	  3159.8
     14.1945	 14898.0	  3285.2	 -6390.5	  3159.8
     14.2280	 14661.0	  3285.2	 -6390.5	  3159.8
     14.2614	 14943.0	  3285.2	 -6390.5	  3159.8
     14.2948	 15162.0	  3285.2	 -6390.5	  3159.8
     14.3282	 15094.0	  3285.2	 -6390.5	  3159.8
     14.3616	 15359.0	  3285.2	 -6390.5	  3159.8
     14.3951	 15384.0	  3285.2	 -6390.5	  3159.8
     14.4285	 15595.0	  3285.2	 -6390.5	  3159.8
     14.4619	 15649.0	  3285.2	 -6390.5	  3159.8
     14.4953	 16104.0	  3285.2	 -6390.5	  3159.8
     14.5288	 15699.0	  3285.2	 -6390.5	  3159.8
     14.5622	 16043.0	  3285.2	 -6390.5	  3159.8
     14.5956	 16012.0	  3285.2	 -6390.5	  3159.8
     14.6290	 16021.0	  3285.2	 -6390.5	  3159.8
     14.6624	 16273.0	  3285.2	 -6390.5	  3159.8
     14.6959	 16240.0	  3285.2	 -6390.5	  3159.8
     14.7293	 16388.0	  3285.2	 -6390.5	  3159.8
     14.7627	 16317.0	  3285.2	 -6390.5	  3159.8
     14.7961	 16799.0	  3285.2	 -6390.5	  3159.8
     14.8296	 16792.0	  3285.2	 -6390.5	  3159.8
     14.8630	 16798.0	  3285.2	 -6390.5	  3159.8
     14.8964	 17106.0	  3285.2	 -6390.5	  3159.8
     14.9298	 17119.0	  3285.2	 -6390.5	  3159.8
     14.9632	 17299.0	  3285.2	 -6390.5	  3159.8
     14.9967	 17176.0	  3285.2	 -6390.5	  3159.8
     15.0301	 17336.0	  3285.2	 -6390.5	  3159.8
     15.0635	 17581.0	  3285.2	 -6390.5	  3159.8
     15.0969	 17619.0	  3285.2	 -6390.5	  3159.8
     15.1304	 17766.0	  3285.2	 -6390.5	  3159.8
     15.1638	 17840.0	  3285.2	 -6390.5	  3159.8
     15.1972	 17830.0	  3285.2	 -6390.5	  3159.8
     15.2306	 18080.0	  3285.2	 -6390.5	  3159.8
     15.2640	 18330.0	  3285.2	 -6390.5	  3159.8
     15.2975	 18485.0	  3285.2	 -6390.5	  3159.8
     15.3309	 18400.0	  3285.2	 -6390.5	  3159.8
     15.3643	 18622.0	  3285.2	 -6390.5	  3159.8
     15.3977	 18717.0	  3285.2	 -6390.5	  3159.8
     15.4312	 18983.0	  3285.2	 -6390.5	  3159.8
     15.4646	 18934.0	  3285.2	 -6390.5	  3159.8
     15.4980	 19103.0	  3285.2	 -6390.5	  3159.8
     15.5314	 19162.0	  3285.2	 -6390.5	  3159.8
     15.5649	 19462.0	  3285.2	 -6390.5	  3159.8
     15.5983	 19266.0	  3285.2	 -6390.5	  3159.8
     15.6317	 19527.0	  3285.2	 -6390.5	  3159.8
     15.6651	 19799.0	  3285.2	 -6390.5	  3159.8
     15.6985	 19687.0	  3285.2	 -6390.5	  3159.8
     15.7320	 20033.0	  3285.2	 -6390.5	  3159.8
     15.7654	 19935.0	  3285.2	 -6390.5	  3159.8
     15.7988	 20116.0	  3285.2	 -6390.5	  3159.8
     15.8322	 20120.0	  3285.2	 -6390.5	  3159.8
     15.8657	 20363.0	  3285.2	 -6390.5	  3159.8
     15.8991	 20260.0	  3285.2	 -6390.5	  3159.8
     15.9325	 20631.0	  3285.2	 -6390.5	  3159.8
     15.9659	 21006.0	  3285.2	 -6390.5	  3159.8
     15.9993	 20730.0	  3285.2	 -6390.5	  3159.8
     16.0328	 20839.0	  3285.2	 -6390.5	  3159.8
     16.0662	 21001.0	  3285.2	 -6390.5	  3159.8
     16.0996	 21328.0	  3285.2	 -6390.5	  3159.8
     16.1330	 21721.0	  3285.2	 -6390.5	  3159.8
     16.1665	 21585.0	  3285.2	 -6390.5	  3159.8
     16.1999	 21776.0	  3285.2	 -6390.5	  3159.8
     16.2333	 21669.0	  3285.2	 -6390.5	  3159.8
     16.2667	 21603.0	  3285.2	 -6390.5	  3159.8
     16.3001	 22119.0	  3285.2	 -6390.5	  3159.8
     16.3336	 21929.0	  3285.2	 -6390.5	  3159.8
     16.3670	 22007.0	  3285.2	 -6390.5	  3159.8
     16.4004	 22012.0	  3285.2	 -6390.5	  3159.8
     16.4338	 22232.0	  3285.2	 -6390.5	  3159.8
     16.4673	 22563.0	  3285.2	 -6390.5	  3159.8
     16.5007	 22714.0	  3285.2	 -6390.5	  3159.8
     16.5341	 22554.0	  3285.2	 -6390.5	  3159.8
     16.5675	 22955.0	  3285.2	 -6390.5	  3159.8
     16.6010	 22969.0	  3285.2	 -6390.5	  3159.8
     16.6344	 23126.0	  3285.2	 -6390.5	  3159.8
     16.6678	 23387.0	  3285.2	 -6390.5	  3159.8
     16.7012	 23277.0	  3285.2	 -6390.5	  3159.8
     16.7346	 23318.0	  3285.2	 -6390.5	  3159.8
     16.7681	 23867.0	  3285.2	 -6390.5	  3159.8
     16.8015	 23716.0	  3285.2	 -6390.5	  3159.8
     16.8349	 23604.0	  3285.2	 -6390.5	  3159.8
     16.8683	 23828.0	  3285.2	 -6390.5	  3159.8
     16.9018	 24099.0	  3285.2	 -6390.5	  3159.8
     16.9352	 24006.0	  3285.2	 -6390.5	  3159.8
     16.9686	 23934.0	  3285.2	 -6390.5	  3159.8
     17.0020	 24374.0	  3285.2	 -6390.5	  3159.8
     17.0354	 24238.0	  3285.2	 -6390.5	  3159.8
     17.0689	 24190.0	  3285.2	 -6390.5	  3159.8
     17.1023	 24549.0	  3285.2	 -6390.5	  3159.8
     17.1357	 24391.0	  3285.2	 -6390.5	  3159.8
     17.1691	 24669.0	  3285.2	 -6390.5	  3159.8
     17.2026	 24756.0	  3285.2	 -6390.5	  3159.8
     17.2360	 24626.0	  3285.2	 -6390.5	  3159.8
     17.2694	 24839.0	  3285.2	 -6390.5	  3159.8
     17.3028	 24719.0	  3285.2	 -6390.5	  3159.8
     17.3362	 24785.0	  3285.2	 -6390.5	  3159.8
     17.3697	 24850.0	  3285.2	 -6390.5	  3159.8
     17.4031	 24996.0	  3285.2	 -6390.5	  3159.8
     17.4365	 25169.0	  3285.2	 -6390.5	  3159.8
     17.4699	 25068.0	  3285.2	 -6390.5	  3159.8
     17.5034	 25522.0	  3285.2	 -6390.5	  3159.8
     17.5368	 24813.0	  3285.2	 -6390.5	  3159.8
     17.5702	 25172.0	  3285.2	 -6390.5	  3159.8
     17.6036	 25016.0	  3285.2	 -6390.5	  3159.8
     17.6371	 25195.0	  3285.2	 -6390.5	  3159.8
     17.6705	 25248.0	  3285.2	 -6390.5	  3159.8
     17.7039	 25007.0	  3285.2	 -6390.5	  3159.8
     17.7373	 25511.0	  3285.2	 -6390.5	  3159.8
     17.7707	 25487.0	  3285.2	 -6390.5	  3159.8
     17.8042	 25150.0	  3285.2	 -6390.5	  3159.8
     17.8376	 25396.0	  3285.2	 -6390.5	  3159.8
     17.8710	 25157.0	  3285.2	 -6390.5	  3159.8
     17.9044	 25425.0	  3285.2	 -6390.5	  3159.8
     17.9379	 25370.0	  3285.2	 -6390.5	  3159.8
     17.9713	 25173.0	  3285.2	 -6390.5	  3159.8
     18.0047	 25562.0	  3285.2	 -6390.5	  3159.8
     18.0381	 25485.0	  3285.2	 -6390.5	  3159.8
     18.0715	 25158.0	  3285.2	 -6390.5	  3159.8
     18.1050	 25186.0	  3285.2	 -6390.5	  3159.8
     18.1384	 25352.0	  3285.2	 -6390.5	  3159.8
     18.1718	 25076.0	  3285.2	 -6390.5	  3159.8
     18.2052	 25199.0	  3285.2	 -6390.5	  3159.8
     18.2387	 25344.0	  3285.2	 -6390.5	  3159.8
     18.2721	 25437.0	  3285.2	 -6390.5	  3159.8
     18.3055	 25182.0	  3285.2	 -6390.5	  3159.8
     18.3389	 25534.0	  3285.2	 -6390.5	  3159.8
     18.3723	 25262.0	  3285.2	 -6390.5	  3159.8
     18.4058	 25048.0	  3285.2	 -6390.5	  3159.8
     18.4392	 25014.0	  3285.2	 -6390.5	  3159.8
     18.4726	 24959.0	  3285.2	 -6390.5	  3159.8
     18.5060	 24662.0	  3285.2	 -6390.5	  3159.8
     18.5395	 24616.0	  3285.2	 -6390.5	  3159.8
     18.5729	 24167.0	  3285.2	 -6390.5	  3159.8
     18.6063	 24081.0	  3285.2	 -6390.5	  3159.8
     18.6397	 23984.0	  3285.2	 -6390.5	  3159.8
     18.6731	 23860.0	  3285.2	 -6390.5	  3159.8
     18.7066	 23880.0	  3285.2	 -6390.5	  3159.8
     18.7400	 23693.0	  3285.2	 -6390.5	  3159.8
     18.7734	 23388.0	  3285.2	 -6390.5	  3159.8
     18.8068	 23332.0	  3285.2	 -6390.5	  3159.8
     18.8403	 23111.0	  3285.2	 -6390.5	  3159.8
     18.8737	 23077.0	  3285.2	 -6390.5	  3159.8
     18.9071	 23200.0	  3285.2	 -6390.5	  3159.8
     18.9405	 23108.0	  3285.2	 -6390.5	  3159.8
     18.9740	 22640.0	  3285.2	 -6390.5	  3159.8
     19.0074	 22741.0	  3285.2	 -6390.5	  3159.8
     19.0408	 22623.0	  3285.2	 -6390.5	  3159.8
     19.0742	 22545.0	  3285.2	 -6390.5	  3159.8
     19.1076	 22617.0	  3285.2	 -6390.5	  3159.8
     19.1411	 22278.0	  3285.2	 -6390.5	  3159.8
     19.1745	 22221.0	  3285.2	 -6390.5	  3159.8
     19.2079	 22311.0	  3285.2	 -6390.5	  3159.8
     19.2413	 21664.0	  3285.2	 -6390.5	  3159.8
     19.2748	 21491.0	  3285.2	 -6390.5	  3159.8
     19.3082	 21022.0	  3285.2	 -6390.5	  3159.8
     19.3416	 21466.0	  3285.2	 -6390.5	  3159.8
     19.3750	 21036.0	  3285.2	 -6390.5	  3159.8
     19.4084	 20745.0	  3285.2	 -6390.5	  3159.8
     19.4419	 20824.0	  3285.2	 -6390.5	  3159.8
     19.4753	 20732.0	  3285.2	 -6390.5	  3159.8
     19.5087	 20592.0	  3285.2	 -6390.5	  3159.8
     19.5421	 20353.0	  3285.2	 -6390.5	  3159.8
     19.5756	 20175.0	  3285.2	 -6390.5	  3159.8
     19.6090	 20118.0	  3285.2	 -6390.5	  3159.8
     19.6424	 19888.0	  3285.2	 -6390.5	  3159.8
     19.6758	 19680.0	  3285.2	 -6390.5	  3159.8
     19.7092	 19648.0	  3285.2	 -6390.5	  3159.8
     19.7427	 19413.0	  3285.2	 -6390.5	  3159.8
     19.7761	 19299.0	  3285.2	 -6390.5	  3159.8
     19.8095	 19018.0	  3285.2	 -6390.5	  3159.8
     19.8429	 18864.0	  3285.2	 -6390.5	  3159.8
     19.8764	 18825.0	  3285.2	 -6390.5	  3159.8
     19.9098	 18771.0	  3285.2	 -6390.5	  3159.8
     19.9432	 18092.0	  3285.2	 -6390.5	  3159.8
     19.9766	 18385.0	  3285.2	 -6390.5	  3159.8
     20.0100	 18138.0	  3285.2	 -6390.5	  3159.8
     20.0435	 17982.0	  3285.2	 -6390.5	  3159.8
     20.0769	 17790.0	  3285.2	 -6390.5	  3159.8
     20.1103	 17756.0	  3285.2	 -6390.5	  3159.8
     20.1437	 17356.0	  3285.2	 -6390.5	  3159.8
     20.1772	 17298.0	  3285.2	 -6390.5	  3159.8
     20.2106	 17174.0	  3285.2	 -6390.5	  3159.8
     20.2440	 16954.0	  3285.2	 -6390.5	  3159.8
     20.2774	 16885.0	  3285.2	 -6390.5	  3159.8
     20.3109	 16640.0	  3285.2	 -6390.5	  3159.8
     20.3443	 16567.0	  3285.2	 -6390.5	  3159.8
     20.3777	 16153.0	  3285.2	 -6390.5	  3159.8
     20.4111	 16197.0	  3285.2	 -6390.5	  3159.8
     20.4445	 16143.0	  3285.2	 -6390.5	  3159.8
     20.4780	 15757.0	  3285.2	 -6390.5	  3159.8
     20.5114	 15707.0	  3285.2	 -6390.5	  3159.8
     20.5448	 15507.0	  3285.2	 -6390.5	  3159.8
     20.5782	 15402.0	  3285.2	 -6390.5	  3159.8
     20.6117	 15331.0	  3285.2	 -6390.5	  3159.8
     20.6451	 15054.0	  3285.2	 -6390.5	  3159.8
     20.6785	 15197.0	  3285.2	 -6390.5	  3159.8
     20.7119	 15008.0	  3285.2	 -6390.5	  3159.8
     20.7453	 14815.0	  3285.2	 -6390.5	  3159.8
     20.7788	 14433.0	  3285.2	 -6390.5	  3159.8
     20.8122	 14406.0	  3285.2	 -6390.5	  3159.8
     20.8456	 14626.0	  3285.2	 -6390.5	  3159.8
     20.8790	 13946.0	  3285.2	 -6390.5	  3159.8
     20.9125	 13839.0	  3285.2	 -6390.5	  3159.8
     20.9459	 13823.0	  3285.2	 -6390.5	  3159.8
     20.9793	 13665.0	  3285.2	 -6390.5	  3159.8
     21.0127	 13634.0	  3285.2	 -6390.5	  3159.8
     21.0461	 13547.0	  3285.2	 -6390.5	  3159.8
     21.0796	 13414.0	  3285.2	 -6390.5	  3159.8
     21.1130	 13396.0	  3285.2	 -6390.5	  3159.8
     21.1464	 13114.0	  3285.2	 -6390.5	  3159.8
     21.1798	 12860.0	  3285.2	 -6390.5	  3159.8
     21.2133	 12982.0	  3285.2	 -6390.5	  3159.8
     21.2467	 12645.0	  3285.2	 -6390.5	  3159.8
     21.2801	 12479.0	  3285.2	 -6390.5	  3159.8
     21.3135	 12518.0	  3285.2	 -6390.5	  3159.8
     21.3470	 12206.0	  3285.2	 -6390.5	  3159.8
     21.3804	 11988.0	  3285.2	 -6390.5	  3159.8
     21.4138	 12230.0	  3285.2	 -6390.5	  3159.8
     21.4472	 12102.0	  3285.2	 -6390.5	  3159.8
     21.4806	 11880.0	  3285.2	 -6390.5	  3159.8
     21.5141	 11693.0	  3285.2	 -6390.5	  3159.8
     21.5475	 11553.0	  3285.2	 -6390.5	  3159.8
     21.5809	 11488.0	  3285.2	 -6390.5	  3159.8
     21.6143	 11261.0	  3285.2	 -6390.5	  3159.8
     21.6478	 11422.0	  3285.2	 -6390.5	  3159.8
     21.6812	 11291.0	  3285.2	 -6390.5	  3159.8
     21.7146	 10935.0	  3285.2	 -6390.5	  3159.8
     21.7480	 10747.0	  3285.2	 -6390.5	  3159.8
     21.7814	 10849.0	  3285.2	 -6390.5	  3159.8
     21.8149	 10690.0	  3285.2	 -6390.5	  3159.8
     21.8483	 10554.0	  3285.2	 -6390.5	  3159.8
     21.8817	 10613.0	  3285.2	 -6390.5	  3159.8
     21.9151	 10469.0	  3285.2	 -6390.5	  3159.8
     21.9486	 10252.0	  3285.2	 -6390.5	  3159.8
     21.9820	 10158.0	  3285.2	 -6390.5	  3159.8
     22.0154	 10100.0	  3285.2	 -6390.5	  3159.8
     22.0488	 10048.0	  3285.2	 -6390.5	  3159.8
     22.0822	  9824.0	  3285.2	 -6390.5	  3159.8
     22.1157	  9907.0	  3285.2	 -6390.5	  3159.8
     22.1491	  9940.0	  3285.2	 -6390.5	  3159.8
     22.1825	  9564.0	  3285.2	 -6390.5	  3159.8
     22.2159	  9647.0	  3285.2	 -6390.5	  3159.8
     22.2494	  9582.0	  3285.2	 -6390.5	  3159.8
     22.2828	  9350.0	  3285.2	 -6390.5	  3159.8
     22.3162	  9208.0	  3285.2	 -6390.5	  3159.8
     22.3496	  9253.0	  3285.2	 -6390.5	  3159.8
     22.3830	  9148.0	  3285.2	 -6390.5	  3159.8
     22.4165	  9126.0	  3285.2	 -6390.5	  3159.8
     22.4499	  8895.0	  3285.2	 -6390.5	  3159.8
     22.4833	  8817.0	  3285.2	 -6390.5	  3159.8
     22.5167	  8801.0	  3285.2	 -6390.5	  3159.8
     22.5502	  8709.0	  3285.2	 -6390.5	  3159.8
     22.5836	  8581.0	  3285.2	 -6390.5	  3159.8
     22.6170	  8435.0	  3285.2	 -6390.5	  3159.8
     22.6504	  8416.0	  3285.2	 -6390.5	  3159.8
     22.6839	  8369.0	  3285.2	 -6390.5	  3159.8
     22.7173	  8274.0	  3285.2	 -6390.5	  3159.8
     22.7507	  8291.0	  3285.2	 -6390.5	  3159.8
     22.7841	  8020.0	  3285.2	 -6390.5	  3159.8
     22.8175	  7898.0	  3285.2	 -6390.5	  3159.8
     22.8510	  8228.0	  3285.2	 -6390.5	  3159.8
     22.8844	  8011.0	  3285.2	 -6390.5	  3159.8
     22.9178	  7803.0	  3285.2	 -6390.5	  3159.8
     22.9512	  7890.0	  3285.2	 -6390.5	  3159.8
     22.9847	  7666.0	  3285.2	 -6390.5	  3159.8
     23.0181	  7535.0	  3285.2	 -6390.5	  3159.8
     23.0515	  7433.0	  3285.2	 -6390.5	  3159.8
     23.0849	  7518.0	  3285.2	 -6390.5	  3159.8
     23.1183	  7544.0	  3285.2	 -6390.5	  3159.8
     23.1518	  7417.0	  3285.2	 -6390.5	  3159.8
     23.1852	  7435.0	  3285.2	 -6390.5	  3159.8
     23.2186	  7402.0	  3285.2	 -6390.5	  3159.8
     23.2520	  7351.0	  3285.2	 -6390.5	  3159.8
     23.2855	  7212.0	  3285.2	 -6390.5	  3159.8
     23.3189	  7207.0	  3285.2	 -6390.5	  3159.8
     23.3523	  7178.0	  3285.2	 -6390.5	  3159.8
     23.3857	  6994.0	  3285.2	 -6390.5	  3159.8
