 Cr2O3   Chi2:  2.4778  CELL:    4.95911   4.95911  13.59701   90.0000   90.0000  120.0000   SPGR: R -3 c                 TEMP:      0.00
  1   2394     1.54060     1.54439     0.00000     0.00571     0.00000    0
    88     0     1
       0.00000      20.00000
 2Theta	Yobs	Ycal	Yobs-Ycal	Backg	Posr	(hkl)	K
     20.0167	  33.000	  35.186	-210.436	  32.668
     20.0501	  38.000	  35.162	-205.412	  32.644
     20.0836	  42.000	  35.138	-201.388	  32.619
     20.1170	  54.000	  35.113	-189.363	  32.595
     20.1504	  39.000	  35.089	-204.339	  32.571
     20.1838	  39.000	  35.065	-204.315	  32.547
     20.2172	  54.000	  35.041	-189.291	  32.522
     20.2507	  34.000	  35.016	-209.266	  32.498
     20.2841	  32.000	  34.992	-211.242	  32.474
     20.3175	  46.000	  34.968	-197.218	  32.450
     20.3509	  33.000	  34.944	-210.194	  32.426
     20.3844	  48.000	  34.920	-195.170	  32.401
     20.4178	  35.000	  34.896	-208.146	  32.377
     20.4512	  34.000	  34.871	-209.121	  32.353
     20.4846	  39.000	  34.847	-204.097	  32.329
     20.5181	  31.000	  34.823	-212.073	  32.305
     20.5515	  25.000	  34.799	-218.049	  32.281
     20.5849	  39.000	  34.775	-204.025	  32.257
     20.6183	  35.000	  34.751	-208.001	  32.233
     20.6517	  38.000	  34.727	-204.977	  32.209
     20.6852	  36.000	  34.703	-206.953	  32.185
     20.7186	  32.000	  34.679	-210.929	  32.160
     20.7520	  32.000	  34.655	-210.905	  32.136
     20.7854	  34.000	  34.631	-208.881	  32.112
     20.8189	  33.000	  34.607	-209.857	  32.088
     20.8523	  31.000	  34.583	-211.833	  32.064
     20.8857	  45.000	  34.559	-197.809	  32.040
     20.9191	  24.000	  34.535	-218.785	  32.016
     20.9525	  32.000	  34.511	-210.761	  31.993
     20.9860	  40.000	  34.487	-202.737	  31.969
     21.0194	  29.000	  34.463	-213.713	  31.945
     21.0528	  37.000	  34.439	-205.689	  31.921
     21.0862	  45.000	  34.415	-197.665	  31.897
     21.1197	  36.000	  34.391	-206.641	  31.873
     21.1531	  40.000	  34.367	-202.617	  31.849
     21.1865	  40.000	  34.343	-202.593	  31.825
     21.2199	  33.000	  34.320	-209.570	  31.801
     21.2533	  22.000	  34.296	-220.546	  31.777
     21.2868	  33.000	  34.272	-209.522	  31.754
     21.3202	  32.000	  34.248	-210.498	  31.730
     21.3536	  45.000	  34.224	-197.474	  31.706
     21.3870	  34.000	  34.200	-208.450	  31.682
     21.4205	  28.000	  34.177	-214.427	  31.658
     21.4539	  42.000	  34.350	-200.600	  31.635
     21.4873	  35.000	  34.331	-207.581	  31.611
     21.5207	  40.000	  34.410	-202.660	  31.587
     21.5541	  34.000	  34.393	-208.643	  31.563
     21.5876	  34.000	  34.377	-208.627	  31.539
     21.6210	  40.000	  34.360	-202.610	  31.516
     21.6544	  24.000	  34.344	-218.594	  31.492
     21.6878	  37.000	  34.328	-205.578	  31.468
     21.7213	  39.000	  34.313	-203.563	  31.445
     21.7547	  31.000	  34.298	-211.548	  31.421
     21.7881	  36.000	  34.283	-206.533	  31.397
     21.8215	  27.000	  34.268	-215.518	  31.374
     21.8550	  40.000	  34.254	-202.504	  31.350
     21.8884	  36.000	  34.240	-206.490	  31.326
     21.9218	  39.000	  34.227	-203.477	  31.303
     21.9552	  26.000	  34.214	-216.464	  31.279
     21.9886	  26.000	  34.201	-216.451	  31.256
     22.0221	  39.000	  34.189	-203.439	  31.232
     22.0555	  29.000	  34.178	-213.428	  31.208
     22.0889	  29.000	  34.167	-213.417	  31.185
     22.1223	  37.000	  34.156	-205.406	  31.161
     22.1558	  36.000	  34.146	-206.396	  31.138
     22.1892	  29.000	  34.137	-213.387	  31.114
     22.2226	  35.000	  34.128	-207.378	  31.091
     22.2560	  22.000	  34.120	-220.370	  31.067
     22.2894	  17.000	  34.112	-225.362	  31.044
     22.3229	  24.000	  34.106	-218.356	  31.020
     22.3563	  28.000	  34.100	-214.350	  30.997
     22.3897	  34.000	  34.095	-208.345	  30.973
     22.4231	  43.000	  34.091	-199.341	  30.950
     22.4566	  27.000	  34.088	-215.338	  30.926
     22.4900	  26.000	  34.085	-216.335	  30.903
     22.5234	  36.000	  34.084	-206.334	  30.880
     22.5568	  29.000	  34.085	-213.335	  30.856
     22.5902	  28.000	  34.086	-214.336	  30.833
     22.6237	  16.000	  34.089	-226.339	  30.809
     22.6571	  27.000	  34.093	-215.343	  30.786
     22.6905	  29.000	  34.098	-213.348	  30.763
     22.7239	  33.000	  34.106	-209.356	  30.739
     22.7574	  34.000	  34.115	-208.365	  30.716
     22.7908	  21.000	  34.126	-221.376	  30.693
     22.8242	  32.000	  34.139	-210.389	  30.669
     22.8576	  35.000	  34.154	-207.404	  30.646
     22.8911	  42.000	  34.171	-200.421	  30.623
     22.9245	  28.000	  34.192	-214.442	  30.600
     22.9579	  19.000	  34.215	-223.465	  30.576
     22.9913	  28.000	  34.241	-214.491	  30.553
     23.0247	  38.000	  34.270	-204.520	  30.530
     23.0582	  28.000	  34.303	-214.553	  30.507
     23.0916	  33.000	  34.340	-209.590	  30.483
     23.1250	  34.000	  34.382	-208.632	  30.460
     23.1584	  32.000	  34.428	-210.678	  30.437
     23.1919	  34.000	  34.479	-208.729	  30.414
     23.2253	  32.000	  34.537	-210.787	  30.391
     23.2587	  27.000	  34.600	-215.850	  30.368
     23.2921	  37.000	  34.671	-205.921	  30.344
     23.3255	  27.000	  34.750	-216.000	  30.321
     23.3590	  48.000	  34.838	-195.088	  30.298
     23.3924	  54.000	  34.936	-189.186	  30.275
     23.4258	  59.000	  35.045	-184.295	  30.252
     23.4592	  62.000	  35.166	-181.416	  30.229
     23.4927	  52.000	  35.302	-191.552	  30.206
     23.5261	  62.000	  35.454	-181.704	  30.183
     23.5595	  57.000	  35.624	-186.874	  30.160
     23.5929	  45.000	  35.816	-199.066	  30.137
     23.6263	  46.000	  36.031	-198.281	  30.114
     23.6598	  52.000	  36.275	-192.525	  30.091
     23.6932	  27.000	  36.551	-217.801	  30.068
     23.7266	  48.000	  36.866	-197.116	  30.045
     23.7600	  39.000	  37.225	-206.475	  30.022
     23.7935	  53.000	  37.637	-192.887	  29.999
     23.8269	  39.000	  38.113	-207.363	  29.976
     23.8603	  45.000	  38.665	-201.915	  29.953
     23.8937	  45.000	  39.310	-202.560	  29.930
     23.9271	  38.000	  40.068	-210.318	  29.907
     23.9606	  38.000	  40.966	-211.216	  29.884
     23.9940	  36.000	  42.041	-214.291	  29.861
     24.0274	  66.000	  43.340	-185.590	  29.838
     24.0608	  54.000	  44.926	-199.176	  29.816
     24.0943	  56.000	  46.890	-199.140	  29.793
     24.1277	  31.000	  49.358	-226.608	  29.770
     24.1611	  40.000	  52.515	-220.765	  29.747
     24.1945	  79.000	  56.640	-185.890	  29.724
     24.2280	  69.000	  62.210	-201.460	  29.701
     24.2614	  84.000	  70.171	-194.421	  29.679
     24.2948	  80.000	  82.662	-210.912	  29.656
     24.3282	 105.000	 104.431	-207.681	  29.633
     24.3616	 127.000	 144.359	-225.609	  29.610
     24.3951	 201.000	 214.819	-222.069	  29.587
     24.4285	 331.000	 325.416	-202.666	  29.565
     24.4619	 472.000	 467.577	-203.827	  29.542
     24.4953	 634.000	 587.642	-161.892	  29.519
     24.5288	 611.000	 609.925	-207.175	  29.497
     24.5622	 529.000	 535.357	-214.607	  29.474
     24.5956	 378.000	 408.072	-238.322	  29.451
     24.6290	 249.000	 281.004	-240.254	  29.429
     24.6624	 169.000	 187.496	-226.746	  29.406
     24.6959	 121.000	 129.368	-216.618	  29.383
     24.7293	 108.000	  96.330	-196.579	  29.361
     24.7627	  87.000	  77.860	-199.110	  29.338
     24.7961	  58.000	  66.908	-217.158	  29.315
     24.8296	  64.000	  59.746	-203.996	  29.293
     24.8630	  57.000	  54.654	-205.904	  29.270
     24.8964	  59.000	  50.841	-200.091	  29.248
     24.9298	  58.000	  47.894	-198.144	  29.225
     24.9632	  52.000	  45.568	-201.818	  29.202
     24.9967	  50.000	  43.698	-201.948	  29.180
     25.0301	  47.000	  42.173	-203.423	  29.157
     25.0635	  38.000	  40.912	-211.162	  29.135
     25.0969	  59.000	  39.857	-189.107	  29.112
     25.1304	  44.000	  38.964	-203.214	  29.090
     25.1638	  42.000	  38.203	-204.453	  29.067
     25.1972	  36.000	  37.547	-209.797	  29.045
     25.2306	  34.000	  36.978	-211.228	  29.022
     25.2640	  40.000	  36.480	-204.730	  29.000
     25.2975	  40.000	  36.042	-204.292	  28.978
     25.3309	  35.000	  35.653	-208.903	  28.955
     25.3643	  22.000	  35.308	-221.558	  28.933
     25.3977	  34.000	  34.998	-209.248	  28.910
     25.4312	  35.000	  34.719	-207.969	  28.888
     25.4646	  37.000	  34.467	-205.717	  28.866
     25.4980	  29.000	  34.238	-213.488	  28.843
     25.5314	  48.000	  34.029	-194.279	  28.821
     25.5649	  40.000	  33.837	-202.087	  28.799
     25.5983	  26.000	  33.661	-215.911	  28.776
     25.6317	  29.000	  33.499	-212.749	  28.754
     25.6651	  39.000	  33.349	-202.599	  28.732
     25.6985	  42.000	  33.209	-199.459	  28.709
     25.7320	  32.000	  33.079	-209.329	  28.687
     25.7654	  22.000	  32.958	-219.208	  28.665
     25.7988	  34.000	  32.844	-207.094	  28.643
     25.8322	  23.000	  32.737	-217.987	  28.620
     25.8657	  33.000	  32.636	-207.886	  28.598
     25.8991	  29.000	  32.542	-211.792	  28.576
     25.9325	  33.000	  32.452	-207.702	  28.554
     25.9659	  19.000	  32.366	-221.616	  28.531
     25.9993	  43.000	  32.285	-197.535	  28.509
     26.0328	  34.000	  32.208	-206.458	  28.487
     26.0662	  25.000	  32.135	-215.385	  28.465
     26.0996	  25.000	  32.064	-215.314	  28.443
     26.1330	  33.000	  31.997	-207.247	  28.421
     26.1665	  32.000	  31.932	-208.182	  28.398
     26.1999	  29.000	  31.870	-211.120	  28.376
     26.2333	  29.000	  31.810	-211.060	  28.354
     26.2667	  46.000	  31.753	-194.003	  28.332
     26.3001	  32.000	  31.697	-207.947	  28.310
     26.3336	  33.000	  31.643	-206.893	  28.288
     26.3670	  34.000	  31.591	-205.841	  28.266
     26.4004	  24.000	  31.541	-215.791	  28.244
     26.4338	  33.000	  31.492	-206.742	  28.222
     26.4673	  33.000	  31.444	-206.694	  28.200
     26.5007	  34.000	  31.398	-205.648	  28.178
     26.5341	  26.000	  31.353	-213.603	  28.156
     26.5675	  29.000	  31.309	-210.559	  28.134
     26.6010	  29.000	  31.266	-210.516	  28.112
     26.6344	  31.000	  31.224	-208.474	  28.090
     26.6678	  28.000	  31.183	-211.433	  28.068
     26.7012	  45.000	  31.143	-194.393	  28.046
     26.7346	  23.000	  31.104	-216.354	  28.024
     26.7681	  35.000	  31.065	-204.315	  28.002
     26.8015	  27.000	  31.027	-212.277	  27.980
     26.8349	  27.000	  30.990	-212.240	  27.958
     26.8683	  33.000	  30.954	-206.204	  27.936
     26.9018	  22.000	  30.918	-217.168	  27.915
     26.9352	  31.000	  30.883	-208.133	  27.893
     26.9686	  26.000	  30.848	-213.098	  27.871
     27.0020	  35.000	  30.814	-204.064	  27.849
     27.0354	  31.000	  30.780	-208.030	  27.827
     27.0689	  22.000	  30.747	-216.997	  27.805
     27.1023	  33.000	  30.715	-205.965	  27.784
     27.1357	  23.000	  30.682	-215.932	  27.762
     27.1691	  23.000	  30.650	-215.900	  27.740
     27.2026	  29.000	  30.619	-209.869	  27.718
     27.2360	  37.000	  30.588	-201.838	  27.697
     27.2694	  21.000	  30.557	-217.807	  27.675
     27.3028	  28.000	  30.527	-210.777	  27.653
     27.3362	  17.000	  30.497	-221.747	  27.631
     27.3697	  32.000	  30.467	-206.717	  27.610
     27.4031	  26.000	  30.437	-212.687	  27.588
     27.4365	  31.000	  30.195	-207.445	  27.566
     27.4699	  37.000	  30.063	-201.313	  27.545
     27.5034	  31.000	  30.041	-207.291	  27.523
     27.5368	  42.000	  30.020	-196.270	  27.501
     27.5702	  34.000	  29.998	-204.248	  27.480
     27.6036	  31.000	  29.976	-207.226	  27.458
     27.6371	  26.000	  29.955	-212.205	  27.436
     27.6705	  46.000	  29.933	-192.183	  27.415
     27.7039	  33.000	  29.912	-205.161	  27.393
     27.7373	  32.000	  29.890	-206.140	  27.372
     27.7707	  33.000	  29.868	-205.118	  27.350
     27.8042	  32.000	  29.847	-206.097	  27.329
     27.8376	  25.000	  29.825	-213.075	  27.307
     27.8710	  34.000	  29.804	-204.054	  27.285
     27.9044	  27.000	  29.782	-211.032	  27.264
     27.9379	  31.000	  29.761	-207.011	  27.242
     27.9713	  33.000	  29.739	-204.989	  27.221
     28.0047	  36.000	  29.718	-201.968	  27.199
     28.0381	  31.000	  29.696	-206.946	  27.178
     28.0715	  33.000	  29.675	-204.925	  27.157
     28.1050	  27.000	  29.653	-210.903	  27.135
     28.1384	  38.000	  29.632	-199.882	  27.114
     28.1718	  29.000	  29.610	-208.860	  27.092
     28.2052	  25.000	  29.589	-212.839	  27.071
     28.2387	  36.000	  29.568	-201.818	  27.049
     28.2721	  27.000	  29.546	-210.796	  27.028
     28.3055	  28.000	  29.525	-209.775	  27.007
     28.3389	  37.000	  29.504	-200.754	  26.985
     28.3723	  32.000	  29.482	-205.732	  26.964
     28.4058	  35.000	  29.461	-202.711	  26.943
     28.4392	  32.000	  29.440	-205.690	  26.921
     28.4726	  23.000	  29.418	-214.668	  26.900
     28.5060	  33.000	  29.397	-204.647	  26.879
     28.5395	  35.000	  29.376	-202.626	  26.857
     28.5729	  37.000	  29.354	-200.604	  26.836
     28.6063	  27.000	  29.333	-210.583	  26.815
     28.6397	  29.000	  29.312	-208.562	  26.793
     28.6731	  38.000	  29.291	-199.541	  26.772
     28.7066	  36.000	  29.269	-201.519	  26.751
     28.7400	  27.000	  29.248	-210.498	  26.730
     28.7734	  29.000	  29.227	-208.477	  26.709
     28.8068	  31.000	  29.206	-206.456	  26.687
     28.8403	  37.000	  29.184	-200.434	  26.666
     28.8737	  36.000	  29.163	-201.413	  26.645
     28.9071	  28.000	  29.142	-209.392	  26.624
     28.9405	  28.000	  29.121	-209.371	  26.603
     28.9740	  32.000	  29.100	-205.350	  26.582
     29.0074	  33.000	  29.079	-204.329	  26.560
     29.0408	  37.000	  29.058	-200.308	  26.539
     29.0742	  37.000	  29.036	-200.286	  26.518
     29.1076	  28.000	  29.015	-209.265	  26.497
     29.1411	  38.000	  28.994	-199.244	  26.476
     29.1745	  38.000	  28.973	-199.223	  26.455
     29.2079	  32.000	  28.952	-205.202	  26.434
     29.2413	  45.000	  28.931	-192.181	  26.413
     29.2748	  35.000	  28.910	-202.160	  26.392
     29.3082	  43.000	  28.889	-194.139	  26.371
     29.3416	  32.000	  28.868	-205.118	  26.350
     29.3750	  38.000	  28.847	-199.097	  26.329
     29.4084	  37.000	  28.826	-200.076	  26.308
     29.4419	  34.000	  28.805	-203.055	  26.287
     29.4753	  47.000	  28.784	-190.034	  26.266
     29.5087	  46.000	  28.763	-191.013	  26.245
     29.5421	  43.000	  28.742	-193.992	  26.224
     29.5756	  40.000	  28.721	-196.971	  26.203
     29.6090	  49.000	  28.700	-187.950	  26.182
     29.6424	  39.000	  28.679	-197.929	  26.161
     29.6758	  37.000	  28.659	-199.909	  26.140
     29.7092	  37.000	  28.638	-199.888	  26.119
     29.7427	  49.000	  28.617	-187.867	  26.098
     29.7761	  43.000	  28.596	-193.846	  26.078
     29.8095	  45.000	  28.575	-191.825	  26.057
     29.8429	  43.000	  28.554	-193.804	  26.036
     29.8764	  57.000	  28.533	-179.783	  26.015
     29.9098	  50.000	  28.513	-186.763	  25.994
     29.9432	  45.000	  28.492	-191.742	  25.974
     29.9766	  53.000	  28.471	-183.721	  25.953
     30.0101	  46.000	  28.450	-190.700	  25.932
     30.0435	  57.000	  28.429	-179.679	  25.911
     30.0769	  43.000	  28.409	-193.659	  25.890
     30.1103	  67.000	  28.388	-169.638	  25.870
     30.1437	  66.000	  28.367	-170.617	  25.849
     30.1772	  64.000	  28.347	-172.597	  25.828
     30.2106	  71.000	  28.326	-165.576	  25.808
     30.2440	  62.000	  28.305	-174.555	  25.787
     30.2774	  68.000	  28.284	-168.534	  25.766
     30.3109	  90.000	  28.264	-146.514	  25.745
     30.3443	  71.000	  28.243	-165.493	  25.725
     30.3777	  78.000	  28.222	-158.472	  25.704
     30.4111	  55.000	  28.202	-181.452	  25.684
     30.4445	  70.000	  28.181	-166.431	  25.663
     30.4780	  69.000	  28.161	-167.411	  25.642
     30.5114	  59.000	  28.140	-177.390	  25.622
     30.5448	  74.000	  28.465	-162.715	  25.601
     30.5782	  58.000	  28.452	-178.702	  25.580
     30.6117	  58.000	  28.609	-178.859	  25.560
     30.6451	  69.000	  28.601	-167.851	  25.539
     30.6785	  75.000	  28.593	-161.843	  25.519
     30.7119	  62.000	  28.585	-174.835	  25.498
     30.7453	  67.000	  28.578	-169.828	  25.478
     30.7788	  57.000	  28.571	-179.821	  25.457
     30.8122	  65.000	  28.564	-171.814	  25.437
     30.8456	  65.000	  28.559	-171.809	  25.416
     30.8790	  52.000	  28.553	-184.803	  25.396
     30.9125	  47.000	  28.549	-189.799	  25.375
     30.9459	  47.000	  28.545	-189.795	  25.355
     30.9793	  36.000	  28.541	-200.791	  25.334
     31.0127	  47.000	  28.539	-189.789	  25.314
     31.0462	  60.000	  28.537	-176.787	  25.294
     31.0796	  59.000	  28.535	-177.785	  25.273
     31.1130	  52.000	  28.535	-184.785	  25.253
     31.1464	  48.000	  28.535	-188.785	  25.232
     31.1798	  56.000	  28.536	-180.786	  25.212
     31.2133	  43.000	  28.538	-193.788	  25.192
     31.2467	  44.000	  28.541	-192.791	  25.171
     31.2801	  50.000	  28.545	-186.795	  25.151
     31.3135	  40.000	  28.551	-196.801	  25.131
     31.3470	  40.000	  28.557	-196.807	  25.110
     31.3804	  34.000	  28.564	-202.814	  25.090
     31.4138	  29.000	  28.573	-207.823	  25.070
     31.4472	  44.000	  28.583	-192.833	  25.050
     31.4806	  34.000	  28.595	-202.845	  25.029
     31.5141	  44.000	  28.608	-192.858	  25.009
     31.5475	  35.000	  28.622	-201.872	  24.989
     31.5809	  35.000	  28.639	-201.889	  24.969
     31.6143	  43.000	  28.657	-193.907	  24.948
     31.6478	  42.000	  28.677	-194.927	  24.928
     31.6812	  35.000	  28.700	-201.950	  24.908
     31.7146	  35.000	  28.724	-201.974	  24.888
     31.7480	  40.000	  28.751	-197.001	  24.868
     31.7814	  47.000	  28.781	-190.031	  24.847
     31.8149	  38.000	  28.813	-199.063	  24.827
     31.8483	  39.000	  28.849	-198.099	  24.807
     31.8817	  37.000	  28.887	-200.137	  24.787
     31.9151	  45.000	  28.929	-192.179	  24.767
     31.9486	  32.000	  28.975	-205.225	  24.747
     31.9820	  37.000	  29.025	-200.275	  24.727
     32.0154	  48.000	  29.079	-189.329	  24.707
     32.0488	  56.000	  29.138	-181.388	  24.687
     32.0822	  56.000	  29.202	-181.452	  24.667
     32.1157	  73.000	  29.272	-164.522	  24.647
     32.1491	  69.000	  29.348	-168.598	  24.627
     32.1825	  55.000	  29.431	-182.681	  24.607
     32.2159	  43.000	  29.521	-194.771	  24.587
     32.2494	  58.000	  29.619	-179.869	  24.567
     32.2828	  57.000	  29.726	-180.976	  24.547
     32.3162	  55.000	  29.843	-183.093	  24.527
     32.3496	  40.000	  29.971	-198.221	  24.507
     32.3830	  50.000	  30.111	-188.361	  24.487
     32.4165	  55.000	  30.264	-183.514	  24.467
     32.4499	  50.000	  30.432	-188.682	  24.447
     32.4833	  35.000	  30.616	-203.866	  24.427
     32.5167	  43.000	  30.819	-196.069	  24.407
     32.5502	  38.000	  31.043	-201.293	  24.387
     32.5836	  45.000	  31.291	-194.541	  24.367
     32.6170	  53.000	  31.566	-186.816	  24.347
     32.6504	  49.000	  31.871	-191.121	  24.328
     32.6839	  36.000	  32.211	-204.461	  24.308
     32.7173	  44.000	  32.591	-196.841	  24.288
     32.7507	  42.000	  33.017	-199.267	  24.268
     32.7841	  33.000	  33.496	-208.746	  24.248
     32.8175	  27.000	  34.038	-215.288	  24.228
     32.8510	  43.000	  34.653	-199.903	  24.209
     32.8844	  34.000	  35.355	-209.605	  24.189
     32.9178	  48.000	  36.159	-196.409	  24.169
     32.9512	  43.000	  37.087	-202.337	  24.149
     32.9847	  43.000	  38.163	-203.413	  24.130
     33.0181	  44.000	  39.422	-203.672	  24.110
     33.0515	  47.000	  40.904	-202.154	  24.090
     33.0849	  63.000	  42.667	-187.917	  24.071
     33.1183	  45.000	  45.099	-208.349	  24.051
     33.1518	  67.000	  47.673	-188.923	  24.031
     33.1852	  58.000	  50.832	-201.082	  24.011
     33.2186	  70.000	  54.928	-193.178	  23.992
     33.2520	  66.000	  59.920	-202.170	  23.972
     33.2855	  83.000	  66.385	-191.635	  23.953
     33.3189	  95.000	  75.042	-188.292	  23.933
     33.3523	  84.000	  87.294	-211.544	  23.913
     33.3857	 135.000	 106.072	-179.322	  23.894
