 Cr2O3   Chi2:  2.1721  CELL:    4.95890   4.95890  13.59472   90.0000   90.0000  120.0000   SPGR: R -3 c                 TEMP:      0.00
  1   2394     1.54060     1.54439     0.00000     0.03567     0.00000    0
    86     0     1
       0.00000      20.00000
 2Theta	Yobs	Ycal	Yobs-Ycal	Backg	Posr	(hkl)	K
     20.0167	   28.00	   18.25	 -308.50	   17.81
     20.0501	   25.00	   18.23	 -311.48	   17.79
     20.0836	   34.00	   18.21	 -302.46	   17.78
     20.1170	   15.00	   18.20	 -321.45	   17.76
     20.1504	   26.00	   18.18	 -310.43	   17.74
     20.1838	   31.00	   18.16	 -305.41	   17.72
     20.2172	   33.00	   18.14	 -303.39	   17.70
     20.2507	   27.00	   18.12	 -309.37	   17.68
     20.2841	   22.00	   18.10	 -314.35	   17.67
     20.3175	   35.00	   18.09	 -301.34	   17.65
     20.3509	   21.00	   18.07	 -315.32	   17.63
     20.3844	   25.00	   18.05	 -311.30	   17.61
     20.4178	   29.00	   18.03	 -307.28	   17.59
     20.4512	   25.00	   18.01	 -311.26	   17.58
     20.4846	   29.00	   18.00	 -307.25	   17.56
     20.5181	   27.00	   17.98	 -309.23	   17.54
     20.5515	   35.00	   17.96	 -301.21	   17.52
     20.5849	   29.00	   17.94	 -307.19	   17.50
     20.6183	   24.00	   17.92	 -312.17	   17.48
     20.6517	   29.00	   17.91	 -307.16	   17.47
     20.6852	   28.00	   17.89	 -308.14	   17.45
     20.7186	   22.00	   17.87	 -314.12	   17.43
     20.7520	   27.00	   17.85	 -309.10	   17.41
     20.7854	   28.00	   17.83	 -308.08	   17.39
     20.8189	   29.00	   17.82	 -307.07	   17.38
     20.8523	   23.00	   17.80	 -313.05	   17.36
     20.8857	   25.00	   17.78	 -311.03	   17.34
     20.9191	   31.00	   17.76	 -305.01	   17.32
     20.9525	   40.00	   17.74	 -295.99	   17.30
     20.9860	   22.00	   17.73	 -313.98	   17.29
     21.0194	   31.00	   17.71	 -304.96	   17.27
     21.0528	   33.00	   17.69	 -302.94	   17.25
     21.0862	   22.00	   17.67	 -313.92	   17.23
     21.1197	   27.00	   17.65	 -308.90	   17.21
     21.1531	   26.00	   17.64	 -309.89	   17.20
     21.1865	   32.00	   17.62	 -303.87	   17.18
     21.2199	   23.00	   17.60	 -312.85	   17.16
     21.2533	   23.00	   17.58	 -312.83	   17.14
     21.2868	   26.00	   17.56	 -309.81	   17.13
     21.3202	   32.00	   17.55	 -303.80	   17.11
     21.3536	   25.00	   17.53	 -310.78	   17.09
     21.3870	   35.00	   17.51	 -300.76	   17.07
     21.4205	   24.00	   17.49	 -311.74	   17.05
     21.4539	   17.00	   17.48	 -318.73	   17.04
     21.4873	   31.00	   17.46	 -304.71	   17.02
     21.5207	   31.00	   17.44	 -304.69	   17.00
     21.5541	   33.00	   17.42	 -302.67	   16.98
     21.5876	   31.00	   17.55	 -304.80	   16.97
     21.6210	   26.00	   17.54	 -309.79	   16.95
     21.6544	   25.00	   17.59	 -310.84	   16.93
     21.6878	   23.00	   17.58	 -312.83	   16.91
     21.7213	   31.00	   17.57	 -304.82	   16.89
     21.7547	   13.00	   17.56	 -322.81	   16.88
     21.7881	   14.00	   17.55	 -321.80	   16.86
     21.8215	   29.00	   17.53	 -306.78	   16.84
     21.8550	   24.00	   17.52	 -311.77	   16.82
     21.8884	   21.00	   17.51	 -314.76	   16.81
     21.9218	   24.00	   17.50	 -311.75	   16.79
     21.9552	   22.00	   17.49	 -313.74	   16.77
     21.9886	   24.00	   17.48	 -311.73	   16.75
     22.0221	   28.00	   17.47	 -307.72	   16.74
     22.0555	   33.00	   17.46	 -302.71	   16.72
     22.0889	   32.00	   17.45	 -303.70	   16.70
     22.1223	   27.00	   17.44	 -308.69	   16.68
     22.1558	   34.00	   17.43	 -301.68	   16.66
     22.1892	   22.00	   17.43	 -313.68	   16.65
     22.2226	   29.00	   17.42	 -306.67	   16.63
     22.2560	   28.00	   17.41	 -307.66	   16.61
     22.2894	   25.00	   17.40	 -310.65	   16.59
     22.3229	   23.00	   17.40	 -312.65	   16.58
     22.3563	   25.00	   17.39	 -310.64	   16.56
     22.3897	   23.00	   17.39	 -312.64	   16.54
     22.4231	   25.00	   17.38	 -310.63	   16.52
     22.4566	   23.00	   17.38	 -312.63	   16.51
     22.4900	   24.00	   17.37	 -311.62	   16.49
     22.5234	   27.00	   17.37	 -308.62	   16.47
     22.5568	   24.00	   17.37	 -311.62	   16.45
     22.5902	   36.00	   17.37	 -299.62	   16.44
     22.6237	   14.00	   17.37	 -321.62	   16.42
     22.6571	   32.00	   17.37	 -303.62	   16.40
     22.6905	   22.00	   17.37	 -313.62	   16.38
     22.7239	   29.00	   17.37	 -306.62	   16.37
     22.7574	   17.00	   17.38	 -318.63	   16.35
     22.7908	   19.00	   17.38	 -316.63	   16.33
     22.8242	   32.00	   17.39	 -303.64	   16.31
     22.8576	   33.00	   17.40	 -302.65	   16.30
     22.8911	   19.00	   17.41	 -316.66	   16.28
     22.9245	   21.00	   17.42	 -314.67	   16.26
     22.9579	   22.00	   17.43	 -313.68	   16.25
     22.9913	   18.00	   17.44	 -317.69	   16.23
     23.0247	   21.00	   17.46	 -314.71	   16.21
     23.0582	   21.00	   17.48	 -314.73	   16.19
     23.0916	   26.00	   17.50	 -309.75	   16.18
     23.1250	   23.00	   17.53	 -312.78	   16.16
     23.1584	   29.00	   17.55	 -306.80	   16.14
     23.1919	   22.00	   17.59	 -313.84	   16.12
     23.2253	   15.00	   17.62	 -320.87	   16.11
     23.2587	   25.00	   17.66	 -310.91	   16.09
     23.2921	   25.00	   17.70	 -310.95	   16.07
     23.3255	   22.00	   17.75	 -314.00	   16.05
     23.3590	   34.00	   17.80	 -302.05	   16.04
     23.3924	   49.00	   17.87	 -287.12	   16.02
     23.4258	   54.00	   17.93	 -282.18	   16.00
     23.4592	   68.00	   18.01	 -268.26	   15.99
     23.4927	   57.00	   18.09	 -279.34	   15.97
     23.5261	   67.00	   18.18	 -269.43	   15.95
     23.5595	   57.00	   18.29	 -279.54	   15.93
     23.5929	   42.00	   18.41	 -294.66	   15.92
     23.6263	   28.00	   18.54	 -308.79	   15.90
     23.6598	   29.00	   18.69	 -307.94	   15.88
     23.6932	   36.00	   18.86	 -301.11	   15.87
     23.7266	   39.00	   19.05	 -298.30	   15.85
     23.7600	   24.00	   19.27	 -313.52	   15.83
     23.7935	   21.00	   19.53	 -316.78	   15.81
     23.8269	   21.00	   19.82	 -317.07	   15.80
     23.8603	   23.00	   20.15	 -315.40	   15.78
     23.8937	   33.00	   20.54	 -305.79	   15.76
     23.9271	   24.00	   20.99	 -315.24	   15.75
     23.9606	   32.00	   21.53	 -307.78	   15.73
     23.9940	   29.00	   22.17	 -311.42	   15.71
     24.0274	   29.00	   22.93	 -312.18	   15.70
     24.0608	   31.00	   23.86	 -311.11	   15.68
     24.0943	   33.00	   25.00	 -310.25	   15.66
     24.1277	   33.00	   26.42	 -311.67	   15.64
     24.1611	   21.00	   28.21	 -325.46	   15.63
     24.1945	   45.00	   30.51	 -303.76	   15.61
     24.2280	   37.00	   33.55	 -314.80	   15.59
     24.2614	   58.00	   37.65	 -297.90	   15.58
     24.2948	   34.00	   43.40	 -327.65	   15.56
     24.3282	   63.00	   52.13	 -307.38	   15.54
     24.3616	   84.00	   68.06	 -302.31	   15.53
     24.3951	   99.00	  105.25	 -324.50	   15.51
     24.4285	  192.00	  197.97	 -324.22	   15.49
     24.4619	  385.00	  392.22	 -325.47	   15.47
     24.4953	  775.00	  688.69	 -231.94	   15.46
     24.5288	 1014.00	  952.15	 -256.40	   15.44
     24.5622	  984.00	  976.01	 -310.26	   15.42
     24.5956	  764.00	  793.58	 -347.83	   15.41
     24.6290	  455.00	  520.60	 -383.85	   15.39
     24.6624	  290.00	  288.41	 -316.66	   15.37
     24.6959	  156.00	  151.29	 -313.54	   15.36
     24.7293	   96.00	   87.09	 -309.34	   15.34
     24.7627	   71.00	   60.05	 -307.30	   15.32
     24.7961	   54.00	   47.49	 -311.74	   15.31
     24.8296	   48.00	   40.19	 -310.44	   15.29
     24.8630	   32.00	   35.24	 -321.49	   15.27
     24.8964	   28.00	   31.65	 -321.90	   15.26
     24.9298	   31.00	   28.96	 -316.21	   15.24
     24.9632	   37.00	   26.88	 -308.13	   15.22
     24.9967	   32.00	   25.25	 -311.50	   15.21
     25.0301	   17.00	   23.94	 -325.19	   15.19
     25.0635	   28.00	   22.88	 -313.13	   15.17
     25.0969	   29.00	   22.00	 -311.25	   15.16
     25.1304	   23.00	   21.26	 -316.51	   15.14
     25.1638	   24.00	   20.64	 -314.89	   15.12
     25.1972	   26.00	   20.12	 -312.37	   15.11
     25.2306	   23.00	   19.66	 -314.91	   15.09
     25.2640	   37.00	   19.26	 -300.51	   15.07
     25.2975	   31.00	   18.92	 -306.17	   15.06
     25.3309	   24.00	   18.61	 -312.86	   15.04
     25.3643	   17.00	   18.35	 -319.60	   15.02
     25.3977	   21.00	   18.11	 -315.36	   15.01
     25.4312	   19.00	   17.89	 -317.14	   14.99
     25.4646	   26.00	   17.70	 -309.95	   14.97
     25.4980	   18.00	   17.52	 -317.77	   14.96
     25.5314	   21.00	   17.36	 -314.61	   14.94
     25.5649	   25.00	   17.22	 -310.47	   14.92
     25.5983	   23.00	   17.08	 -312.33	   14.91
     25.6317	   18.00	   16.96	 -317.21	   14.89
     25.6651	   13.00	   16.85	 -322.10	   14.87
     25.6985	   12.00	   16.74	 -322.99	   14.86
     25.7320	   14.00	   16.65	 -320.90	   14.84
     25.7654	   22.00	   16.55	 -312.80	   14.82
     25.7988	   18.00	   16.47	 -316.72	   14.81
     25.8322	   21.00	   16.39	 -313.64	   14.79
     25.8657	   16.00	   16.32	 -318.57	   14.77
     25.8991	   25.00	   16.24	 -309.49	   14.76
     25.9325	   23.00	   16.18	 -311.43	   14.74
     25.9659	   17.00	   16.11	 -317.36	   14.72
     25.9993	   17.00	   16.06	 -317.31	   14.71
     26.0328	   19.00	   16.00	 -315.25	   14.69
     26.0662	   13.00	   15.94	 -321.19	   14.67
     26.0996	   16.00	   15.89	 -318.14	   14.66
     26.1330	   21.00	   15.84	 -313.09	   14.64
     26.1665	   22.00	   15.79	 -312.04	   14.63
     26.1999	   21.00	   15.75	 -313.00	   14.61
     26.2333	   22.00	   15.70	 -311.95	   14.59
     26.2667	   13.00	   15.66	 -320.91	   14.58
     26.3001	   19.00	   15.62	 -314.87	   14.56
     26.3336	   18.00	   15.58	 -315.83	   14.54
     26.3670	   31.00	   15.54	 -302.79	   14.53
     26.4004	   12.00	   15.51	 -321.76	   14.51
     26.4338	   13.00	   15.47	 -320.72	   14.49
     26.4673	   12.00	   15.44	 -321.69	   14.48
     26.5007	   22.00	   15.40	 -311.65	   14.46
     26.5341	   13.00	   15.37	 -320.62	   14.45
     26.5675	   18.00	   15.34	 -315.59	   14.43
     26.6010	   12.00	   15.31	 -321.56	   14.41
     26.6344	   14.00	   15.27	 -319.52	   14.40
     26.6678	   16.00	   15.24	 -317.49	   14.38
     26.7012	   18.00	   15.22	 -315.47	   14.36
     26.7346	   15.00	   15.19	 -318.44	   14.35
     26.7681	   21.00	   15.16	 -312.41	   14.33
     26.8015	   19.00	   15.13	 -314.38	   14.32
     26.8349	   22.00	   15.10	 -311.35	   14.30
     26.8683	   21.00	   15.08	 -312.33	   14.28
     26.9018	   22.00	   15.05	 -311.30	   14.27
     26.9352	   14.00	   15.03	 -319.28	   14.25
     26.9686	   16.00	   15.00	 -317.25	   14.24
     27.0020	   13.00	   14.98	 -320.23	   14.22
     27.0354	   21.00	   14.95	 -312.20	   14.20
     27.0689	   15.00	   14.93	 -318.18	   14.19
     27.1023	   27.00	   14.90	 -306.15	   14.17
     27.1357	   19.00	   14.88	 -314.13	   14.15
     27.1691	   12.00	   14.86	 -321.11	   14.14
     27.2026	   15.00	   14.83	 -318.08	   14.12
     27.2360	   19.00	   14.81	 -314.06	   14.11
     27.2694	   18.00	   14.79	 -315.04	   14.09
     27.3028	   25.00	   14.76	 -308.01	   14.07
     27.3362	   18.00	   14.74	 -314.99	   14.06
     27.3697	    9.00	   14.72	 -323.97	   14.04
     27.4031	   15.00	   14.70	 -317.95	   14.03
     27.4365	   13.00	   14.68	 -319.93	   14.01
     27.4699	   18.00	   14.66	 -314.91	   13.99
     27.5034	   11.00	   14.64	 -321.89	   13.98
     27.5368	   19.00	   14.47	 -313.72	   13.96
     27.5702	   14.00	   14.39	 -318.64	   13.95
     27.6036	   17.00	   14.37	 -315.62	   13.93
     27.6371	   19.00	   14.35	 -313.60	   13.91
     27.6705	   19.00	   14.34	 -313.59	   13.90
     27.7039	    9.00	   14.32	 -323.57	   13.88
     27.7373	   14.00	   14.31	 -318.56	   13.87
     27.7707	   11.00	   14.29	 -321.54	   13.85
     27.8042	   17.00	   14.27	 -315.52	   13.83
     27.8376	   21.00	   14.26	 -311.51	   13.82
     27.8710	   14.00	   14.24	 -318.49	   13.80
     27.9044	   14.00	   14.23	 -318.48	   13.79
     27.9379	   14.00	   14.21	 -318.46	   13.77
     27.9713	   22.00	   14.19	 -310.44	   13.76
     28.0047	   18.00	   14.18	 -314.43	   13.74
     28.0381	   14.00	   14.16	 -318.41	   13.72
     28.0715	   13.00	   14.15	 -319.40	   13.71
     28.1050	   15.00	   14.13	 -317.38	   13.69
     28.1384	   14.00	   14.12	 -318.37	   13.68
     28.1718	   21.00	   14.10	 -311.35	   13.66
     28.2052	   15.00	   14.08	 -317.33	   13.64
     28.2387	   13.00	   14.07	 -319.32	   13.63
     28.2721	   18.00	   14.05	 -314.30	   13.61
     28.3055	   17.00	   14.04	 -315.29	   13.60
     28.3389	   13.00	   14.02	 -319.27	   13.58
     28.3723	   14.00	   14.01	 -318.26	   13.57
     28.4058	   13.00	   13.99	 -319.24	   13.55
     28.4392	   17.00	   13.97	 -315.22	   13.53
     28.4726	   15.00	   13.96	 -317.21	   13.52
     28.5060	    9.00	   13.94	 -323.19	   13.50
     28.5395	    7.00	   13.93	 -325.18	   13.49
     28.5729	   15.00	   13.91	 -317.16	   13.47
     28.6063	   15.00	   13.90	 -317.15	   13.46
     28.6397	   13.00	   13.88	 -319.13	   13.44
     28.6731	    8.00	   13.86	 -324.11	   13.43
     28.7066	    6.00	   13.85	 -326.10	   13.41
     28.7400	   13.00	   13.83	 -319.08	   13.39
     28.7734	   21.00	   13.82	 -311.07	   13.38
     28.8068	   14.00	   13.80	 -318.05	   13.36
     28.8403	   17.00	   13.79	 -315.04	   13.35
     28.8737	   14.00	   13.77	 -318.02	   13.33
     28.9071	   11.00	   13.75	 -321.00	   13.32
     28.9405	   11.00	   13.74	 -320.99	   13.30
     28.9740	   16.00	   13.72	 -315.97	   13.28
     29.0074	   21.00	   13.71	 -310.96	   13.27
     29.0408	    7.00	   13.69	 -324.94	   13.25
     29.0742	   12.00	   13.68	 -319.93	   13.24
     29.1076	   11.00	   13.66	 -320.91	   13.22
     29.1411	   13.00	   13.65	 -318.90	   13.21
     29.1745	    8.00	   13.63	 -323.88	   13.19
     29.2079	   16.00	   13.62	 -315.87	   13.18
     29.2413	   14.00	   13.60	 -317.85	   13.16
     29.2748	   13.00	   13.58	 -318.83	   13.15
     29.3082	   14.00	   13.57	 -317.82	   13.13
     29.3416	   17.00	   13.55	 -314.80	   13.11
     29.3750	    4.00	   13.54	 -327.79	   13.10
     29.4084	   16.00	   13.52	 -315.77	   13.08
     29.4419	   11.00	   13.51	 -320.76	   13.07
     29.4753	   15.00	   13.49	 -316.74	   13.05
     29.5087	   17.00	   13.48	 -314.73	   13.04
     29.5421	   19.00	   13.46	 -312.71	   13.02
     29.5756	   19.00	   13.45	 -312.70	   13.01
     29.6090	   13.00	   13.43	 -318.68	   12.99
     29.6424	   17.00	   13.42	 -314.67	   12.98
     29.6758	   16.00	   13.40	 -315.65	   12.96
     29.7092	   17.00	   13.38	 -314.63	   12.95
     29.7427	   11.00	   13.37	 -320.62	   12.93
     29.7761	   14.00	   13.35	 -317.60	   12.91
     29.8095	    8.00	   13.34	 -323.59	   12.90
     29.8429	   14.00	   13.32	 -317.57	   12.88
     29.8764	   11.00	   13.31	 -320.56	   12.87
     29.9098	   22.00	   13.29	 -309.54	   12.85
     29.9432	   11.00	   13.28	 -320.53	   12.84
     29.9766	   11.00	   13.26	 -320.51	   12.82
     30.0101	   12.00	   13.25	 -319.50	   12.81
     30.0435	   14.00	   13.23	 -317.48	   12.79
     30.0769	   14.00	   13.22	 -317.47	   12.78
     30.1103	   15.00	   13.20	 -316.45	   12.76
     30.1437	    7.00	   13.19	 -324.44	   12.75
     30.1772	   15.00	   13.17	 -316.42	   12.73
     30.2106	   21.00	   13.16	 -310.41	   12.72
     30.2440	   16.00	   13.14	 -315.39	   12.70
     30.2774	   24.00	   13.13	 -307.38	   12.69
     30.3109	   27.00	   13.11	 -304.36	   12.67
     30.3443	   24.00	   13.10	 -307.35	   12.66
     30.3777	   21.00	   13.08	 -310.33	   12.64
     30.4111	   16.00	   13.07	 -315.32	   12.63
     30.4445	   21.00	   13.05	 -310.30	   12.61
     30.4780	   14.00	   13.03	 -317.28	   12.60
     30.5114	   12.00	   13.02	 -319.27	   12.58
     30.5448	   19.00	   13.00	 -312.25	   12.57
     30.5782	   12.00	   12.99	 -319.24	   12.55
     30.6117	   21.00	   12.97	 -310.22	   12.54
     30.6451	   11.00	   13.20	 -320.45	   12.52
     30.6785	   14.00	   13.19	 -317.44	   12.51
     30.7119	    6.00	   13.18	 -325.43	   12.49
     30.7453	   13.00	   13.29	 -318.54	   12.48
     30.7788	   11.00	   13.28	 -320.53	   12.46
     30.8122	    9.00	   13.27	 -322.52	   12.45
     30.8456	   18.00	   13.27	 -313.52	   12.43
     30.8790	   17.00	   13.26	 -314.51	   12.42
     30.9125	   12.00	   13.26	 -319.51	   12.40
     30.9459	   18.00	   13.25	 -313.50	   12.39
     30.9793	   11.00	   13.25	 -320.50	   12.37
     31.0127	   22.00	   13.24	 -309.49	   12.36
     31.0462	   26.00	   13.24	 -305.49	   12.34
     31.0796	   16.00	   13.24	 -315.49	   12.33
     31.1130	    6.00	   13.24	 -325.49	   12.31
     31.1464	   19.00	   13.23	 -312.48	   12.30
     31.1798	   16.00	   13.23	 -315.48	   12.28
     31.2133	   11.00	   13.23	 -320.48	   12.27
     31.2467	   17.00	   13.23	 -314.48	   12.25
     31.2801	   15.00	   13.23	 -316.48	   12.24
     31.3135	   12.00	   13.23	 -319.48	   12.22
     31.3470	   11.00	   13.23	 -320.48	   12.21
     31.3804	   15.00	   13.24	 -316.49	   12.19
     31.4138	   17.00	   13.24	 -314.49	   12.18
     31.4472	    7.00	   13.24	 -324.49	   12.16
     31.4806	   13.00	   13.25	 -318.50	   12.15
     31.5141	   13.00	   13.26	 -318.51	   12.13
     31.5475	   22.00	   13.26	 -309.51	   12.12
     31.5809	   15.00	   13.27	 -316.52	   12.10
     31.6143	   11.00	   13.28	 -320.53	   12.09
     31.6478	   13.00	   13.29	 -318.54	   12.07
     31.6812	   11.00	   13.30	 -320.55	   12.06
     31.7146	   14.00	   13.32	 -317.57	   12.04
     31.7480	   13.00	   13.33	 -318.58	   12.03
     31.7814	   19.00	   13.35	 -312.60	   12.02
     31.8149	   15.00	   13.36	 -316.61	   12.00
     31.8483	   13.00	   13.38	 -318.63	   11.99
     31.8817	   13.00	   13.40	 -318.65	   11.97
     31.9151	   14.00	   13.43	 -317.68	   11.96
     31.9486	   21.00	   13.45	 -310.70	   11.94
     31.9820	   26.00	   13.48	 -305.73	   11.93
     32.0154	   16.00	   13.51	 -315.76	   11.91
     32.0488	   23.00	   13.55	 -308.80	   11.90
     32.0822	   29.00	   13.59	 -302.84	   11.88
     32.1157	   33.00	   13.63	 -298.88	   11.87
     32.1491	   52.00	   13.67	 -279.92	   11.85
     32.1825	   46.00	   13.72	 -285.97	   11.84
     32.2159	   53.00	   13.77	 -279.02	   11.83
     32.2494	   55.00	   13.83	 -277.08	   11.81
     32.2828	   46.00	   13.89	 -286.14	   11.80
     32.3162	   26.00	   13.96	 -306.21	   11.78
     32.3496	   21.00	   14.04	 -311.29	   11.77
     32.3830	   24.00	   14.12	 -308.37	   11.75
     32.4165	   26.00	   14.21	 -306.46	   11.74
     32.4499	   23.00	   14.31	 -309.56	   11.72
     32.4833	   24.00	   14.42	 -308.67	   11.71
     32.5167	   16.00	   14.54	 -316.79	   11.69
     32.5502	   19.00	   14.67	 -313.92	   11.68
     32.5836	   21.00	   14.81	 -312.06	   11.67
     32.6170	   37.00	   14.97	 -296.22	   11.65
     32.6504	   21.00	   15.15	 -312.40	   11.64
     32.6839	   17.00	   15.35	 -316.60	   11.62
     32.7173	   27.00	   15.58	 -306.83	   11.61
     32.7507	   29.00	   15.82	 -305.07	   11.59
     32.7841	   19.00	   16.10	 -315.35	   11.58
     32.8175	   22.00	   16.42	 -312.67	   11.56
     32.8510	   21.00	   16.78	 -314.03	   11.55
     32.8844	   24.00	   17.18	 -311.43	   11.54
     32.9178	   19.00	   17.64	 -316.89	   11.52
     32.9512	   17.00	   18.17	 -319.42	   11.51
     32.9847	   14.00	   18.79	 -323.04	   11.49
     33.0181	   17.00	   19.50	 -320.75	   11.48
     33.0515	   25.00	   20.34	 -313.59	   11.46
     33.0849	   25.00	   21.33	 -314.58	   11.45
     33.1183	   28.00	   22.50	 -312.75	   11.44
     33.1518	   24.00	   23.92	 -318.17	   11.42
     33.1852	   26.00	   25.65	 -317.90	   11.41
     33.2186	   32.00	   27.78	 -314.03	   11.39
     33.2520	   26.00	   30.68	 -322.93	   11.38
     33.2855	   33.00	   34.10	 -319.35	   11.36
     33.3189	   45.00	   38.54	 -311.79	   11.35
     33.3523	   54.00	   44.59	 -308.84	   11.34
     33.3857	   73.00	   52.81	 -298.06	   11.32
