 S01 E17   Chi2:  1.4911  CELL:    5.64238   5.64238   5.64238   90.0000   90.0000   90.0000   SPGR: 225                    TEMP:      0.00
  1   3890     1.54060     1.54439     0.00000     0.12121     0.00000    0
    44     0     1
       0.00000      20.00000
 2Theta	Yobs	Ycal	Yobs-Ycal	Backg	Posr	(hkl)	K
     20.0167	   39.00	   28.13	-1612.20	   25.26
     20.0501	   34.00	   28.12	-1617.19	   25.24
     20.0836	   47.00	   28.10	-1604.17	   25.23
     20.1170	   38.00	   28.08	-1613.15	   25.21
     20.1504	   43.00	   28.07	-1608.14	   25.19
     20.1838	   42.00	   28.05	-1609.12	   25.18
     20.2172	   43.00	   28.04	-1608.10	   25.16
     20.2507	   31.00	   28.02	-1620.09	   25.14
     20.2841	   31.00	   28.00	-1620.07	   25.13
     20.3175	   38.00	   27.99	-1613.05	   25.11
     20.3509	   33.00	   27.97	-1618.04	   25.09
     20.3844	   32.00	   27.95	-1619.02	   25.08
     20.4178	   31.00	   27.94	-1620.01	   25.06
     20.4512	   36.00	   27.92	-1614.99	   25.04
     20.4846	   33.00	   27.90	-1617.97	   25.03
     20.5181	   43.00	   27.89	-1607.96	   25.01
     20.5515	   29.00	   27.87	-1621.94	   24.99
     20.5849	   39.00	   27.85	-1611.92	   24.98
     20.6183	   37.00	   27.84	-1613.91	   24.96
     20.6517	   36.00	   27.82	-1614.89	   24.94
     20.6852	   37.00	   27.80	-1613.87	   24.93
     20.7186	   31.00	   27.79	-1619.86	   24.91
     20.7520	   31.00	   27.77	-1619.84	   24.89
     20.7854	   38.00	   27.75	-1612.82	   24.88
     20.8189	   44.00	   27.74	-1606.81	   24.86
     20.8523	   34.00	   27.72	-1616.79	   24.85
     20.8857	   44.00	   27.71	-1606.77	   24.83
     20.9191	   43.00	   27.69	-1607.76	   24.81
     20.9525	   39.00	   27.67	-1611.74	   24.80
     20.9860	   30.00	   27.66	-1620.73	   24.78
     21.0194	   49.00	   27.64	-1601.71	   24.76
     21.0528	   43.00	   27.62	-1607.69	   24.75
     21.0862	   36.00	   27.61	-1614.68	   24.73
     21.1197	   17.00	   27.59	-1633.66	   24.71
     21.1531	   27.00	   27.57	-1623.64	   24.70
     21.1865	   32.00	   27.56	-1618.63	   24.68
     21.2199	   43.00	   27.54	-1607.61	   24.66
     21.2533	   34.00	   27.53	-1616.59	   24.65
     21.2868	   43.00	   27.51	-1607.58	   24.63
     21.3202	   34.00	   27.49	-1616.56	   24.62
     21.3536	   39.00	   27.48	-1611.55	   24.60
     21.3870	   29.00	   27.46	-1621.53	   24.58
     21.4205	   33.00	   27.44	-1617.51	   24.57
     21.4539	   28.00	   27.43	-1622.50	   24.55
     21.4873	   38.00	   27.41	-1612.48	   24.53
     21.5207	   42.00	   27.39	-1608.46	   24.52
     21.5541	   32.00	   27.38	-1618.45	   24.50
     21.5876	   31.00	   27.36	-1619.43	   24.49
     21.6210	   38.00	   27.35	-1612.42	   24.47
     21.6544	   35.00	   27.37	-1615.44	   24.45
     21.6878	   35.00	   27.35	-1615.42	   24.44
     21.7213	   35.00	   27.36	-1615.43	   24.42
     21.7547	   51.00	   27.34	-1599.41	   24.40
     21.7881	   43.00	   27.33	-1607.40	   24.39
     21.8215	   41.00	   27.31	-1609.38	   24.37
     21.8550	   30.00	   27.30	-1620.37	   24.36
     21.8884	   28.00	   27.28	-1622.35	   24.34
     21.9218	   51.00	   27.27	-1599.34	   24.32
     21.9552	   32.00	   27.25	-1618.32	   24.31
     21.9886	   46.00	   27.24	-1604.30	   24.29
     22.0221	   36.00	   27.22	-1614.29	   24.28
     22.0555	   31.00	   27.20	-1619.27	   24.26
     22.0889	   45.00	   27.19	-1605.26	   24.24
     22.1223	   29.00	   27.17	-1621.24	   24.23
     22.1558	   23.00	   27.16	-1627.23	   24.21
     22.1892	   41.00	   27.14	-1609.21	   24.19
     22.2226	   25.00	   27.13	-1625.20	   24.18
     22.2560	   34.00	   27.11	-1616.18	   24.16
     22.2894	   43.00	   27.10	-1607.17	   24.15
     22.3229	   29.00	   27.08	-1621.15	   24.13
     22.3563	   29.00	   27.07	-1621.14	   24.11
     22.3897	   34.00	   27.05	-1616.12	   24.10
     22.4231	   39.00	   27.04	-1611.11	   24.08
     22.4566	   39.00	   27.02	-1611.09	   24.07
     22.4900	   31.00	   27.01	-1619.08	   24.05
     22.5234	   33.00	   26.99	-1617.06	   24.03
     22.5568	   37.00	   26.98	-1613.05	   24.02
     22.5902	   27.00	   26.96	-1623.03	   24.00
     22.6237	   28.00	   26.95	-1622.02	   23.99
     22.6571	   43.00	   26.93	-1607.00	   23.97
     22.6905	   35.00	   26.92	-1614.99	   23.95
     22.7239	   38.00	   26.90	-1611.97	   23.94
     22.7574	   31.00	   26.89	-1618.96	   23.92
     22.7908	   41.00	   26.88	-1608.94	   23.91
     22.8242	   21.00	   26.86	-1628.93	   23.89
     22.8576	   25.00	   26.85	-1624.92	   23.87
     22.8911	   34.00	   26.83	-1615.90	   23.86
     22.9245	   32.00	   26.82	-1617.89	   23.84
     22.9579	   31.00	   26.80	-1618.87	   23.83
     22.9913	   35.00	   26.79	-1614.86	   23.81
     23.0247	   28.00	   26.77	-1621.84	   23.80
     23.0582	   35.00	   26.76	-1614.83	   23.78
     23.0916	   29.00	   26.75	-1620.81	   23.76
     23.1250	   30.00	   26.73	-1619.80	   23.75
     23.1584	   31.00	   26.72	-1618.79	   23.73
     23.1919	   34.00	   26.70	-1615.77	   23.72
     23.2253	   25.00	   26.69	-1624.76	   23.70
     23.2587	   23.00	   26.67	-1626.74	   23.68
     23.2921	   36.00	   26.66	-1613.73	   23.67
     23.3255	   42.00	   26.65	-1607.72	   23.65
     23.3590	   34.00	   26.63	-1615.70	   23.64
     23.3924	   35.00	   26.62	-1614.69	   23.62
     23.4258	   19.00	   26.61	-1630.67	   23.61
     23.4592	   27.00	   26.59	-1622.66	   23.59
     23.4927	   24.00	   26.58	-1625.65	   23.57
     23.5261	   36.00	   26.56	-1613.63	   23.56
     23.5595	   37.00	   26.55	-1612.62	   23.54
     23.5929	   22.00	   26.54	-1627.61	   23.53
     23.6263	   38.00	   26.52	-1611.59	   23.51
     23.6598	   25.00	   26.51	-1624.58	   23.49
     23.6932	   17.00	   26.50	-1632.57	   23.48
     23.7266	   24.00	   26.48	-1625.55	   23.46
     23.7600	   33.00	   26.47	-1616.54	   23.45
     23.7935	   24.00	   26.46	-1625.53	   23.43
     23.8269	   29.00	   26.44	-1620.51	   23.42
     23.8603	   41.00	   26.43	-1608.50	   23.40
     23.8937	   34.00	   26.42	-1615.49	   23.39
     23.9271	   22.00	   26.41	-1627.48	   23.37
     23.9606	   34.00	   26.39	-1615.46	   23.35
     23.9940	   25.00	   26.38	-1624.45	   23.34
     24.0274	   29.00	   26.37	-1620.44	   23.32
     24.0608	   25.00	   26.36	-1624.43	   23.31
     24.0943	   28.00	   26.34	-1621.41	   23.29
     24.1277	   23.00	   26.33	-1626.40	   23.28
     24.1611	   23.00	   26.32	-1626.39	   23.26
     24.1945	   29.00	   26.31	-1620.38	   23.24
     24.2280	   22.00	   26.30	-1627.37	   23.23
     24.2614	   33.00	   26.29	-1616.35	   23.21
     24.2948	   25.00	   26.27	-1624.34	   23.20
     24.3282	   29.00	   26.26	-1620.33	   23.18
     24.3616	   32.00	   26.25	-1617.32	   23.17
     24.3951	   20.00	   26.24	-1629.31	   23.15
     24.4285	   42.00	   26.23	-1607.30	   23.14
     24.4619	   23.00	   26.22	-1626.29	   23.12
     24.4953	   21.00	   26.21	-1628.28	   23.10
     24.5288	   37.00	   26.20	-1612.27	   23.09
     24.5622	   33.00	   26.19	-1616.26	   23.07
     24.5956	   27.00	   26.18	-1622.25	   23.06
     24.6290	   35.00	   26.17	-1614.24	   23.04
     24.6624	   27.00	   26.16	-1622.23	   23.03
     24.6959	   35.00	   26.15	-1614.22	   23.01
     24.7293	   28.00	   26.14	-1621.21	   23.00
     24.7627	   19.00	   26.13	-1630.20	   22.98
     24.7961	   23.00	   26.12	-1626.19	   22.97
     24.8296	   18.00	   26.11	-1631.18	   22.95
     24.8630	   27.00	   26.11	-1622.18	   22.93
     24.8964	   28.00	   26.10	-1621.17	   22.92
     24.9298	   17.00	   26.09	-1632.16	   22.90
     24.9632	   27.00	   26.08	-1622.15	   22.89
     24.9967	   33.00	   26.08	-1616.15	   22.87
     25.0301	   22.00	   26.07	-1627.14	   22.86
     25.0635	   30.00	   26.06	-1619.13	   22.84
     25.0969	   24.00	   26.06	-1625.13	   22.83
     25.1304	   27.00	   26.05	-1622.12	   22.81
     25.1638	   24.00	   26.05	-1625.12	   22.80
     25.1972	   29.00	   26.04	-1620.11	   22.78
     25.2306	   23.00	   26.04	-1626.11	   22.77
     25.2641	   24.00	   26.04	-1625.11	   22.75
     25.2975	   25.00	   26.03	-1624.10	   22.73
     25.3309	   20.00	   26.03	-1629.10	   22.72
     25.3643	   29.00	   26.03	-1620.10	   22.70
     25.3977	   28.00	   26.03	-1621.10	   22.69
     25.4312	   28.00	   26.03	-1621.10	   22.67
     25.4646	   36.00	   26.03	-1613.10	   22.66
     25.4980	   29.00	   26.03	-1620.10	   22.64
     25.5314	   32.00	   26.57	-1617.64	   22.63
     25.5649	   35.00	   26.58	-1614.65	   22.61
     25.5983	   23.00	   26.85	-1626.92	   22.60
     25.6317	   23.00	   26.86	-1626.93	   22.58
     25.6651	   41.00	   26.88	-1608.95	   22.57
     25.6985	   29.00	   26.90	-1620.97	   22.55
     25.7320	   28.00	   26.92	-1621.98	   22.54
     25.7654	   32.00	   26.93	-1618.00	   22.52
     25.7988	   27.00	   26.96	-1623.03	   22.51
     25.8322	   31.00	   26.98	-1619.05	   22.49
     25.8657	   32.00	   27.00	-1618.07	   22.48
     25.8991	   31.00	   27.03	-1619.10	   22.46
     25.9325	   23.00	   27.06	-1627.13	   22.44
     25.9659	   29.00	   27.09	-1621.16	   22.43
     25.9993	   34.00	   27.13	-1616.20	   22.41
     26.0328	   32.00	   27.17	-1618.24	   22.40
     26.0662	   31.00	   27.21	-1619.28	   22.38
     26.0996	   19.00	   27.25	-1631.32	   22.37
     26.1330	   34.00	   27.30	-1616.37	   22.35
     26.1665	   28.00	   27.35	-1622.42	   22.34
     26.1999	   18.00	   27.41	-1632.48	   22.32
     26.2333	   22.00	   27.47	-1628.54	   22.31
     26.2667	   27.00	   27.54	-1623.61	   22.29
     26.3001	   30.00	   27.61	-1620.68	   22.28
     26.3336	   30.00	   27.69	-1620.76	   22.26
     26.3670	   36.00	   27.78	-1614.85	   22.25
     26.4004	   33.00	   27.88	-1617.95	   22.23
     26.4338	   22.00	   27.98	-1629.05	   22.22
     26.4673	   36.00	   28.10	-1615.17	   22.20
     26.5007	   32.00	   28.23	-1619.30	   22.19
     26.5341	   23.00	   28.38	-1628.45	   22.17
     26.5675	   28.00	   28.54	-1623.61	   22.16
     26.6010	   24.00	   28.72	-1627.79	   22.14
     26.6344	   29.00	   28.92	-1622.99	   22.13
     26.6678	   46.00	   29.14	-1606.21	   22.11
     26.7012	   31.00	   29.40	-1621.47	   22.10
     26.7346	   37.00	   29.69	-1615.76	   22.08
     26.7681	   24.00	   30.02	-1629.09	   22.07
     26.8015	   32.00	   30.40	-1621.46	   22.05
     26.8349	   20.00	   30.83	-1633.90	   22.04
     26.8683	   36.00	   31.34	-1618.41	   22.02
     26.9018	   49.00	   31.94	-1606.01	   22.01
     26.9352	   33.00	   32.64	-1622.71	   21.99
     26.9686	   39.00	   33.48	-1617.55	   21.98
     27.0020	   28.00	   34.49	-1629.56	   21.96
     27.0354	   39.00	   35.73	-1619.80	   21.95
     27.0689	   33.00	   37.26	-1627.33	   21.93
     27.1023	   37.00	   39.19	-1625.26	   21.92
     27.1357	   48.00	   41.66	-1616.73	   21.90
     27.1691	   46.00	   44.91	-1621.98	   21.89
     27.2026	   46.00	   49.27	-1626.34	   21.87
     27.2360	   56.00	   55.40	-1622.47	   21.86
     27.2694	   83.00	   64.69	-1604.76	   21.85
     27.3028	  118.00	   80.73	-1585.80	   21.83
     27.3362	  167.00	  111.96	-1568.03	   21.82
     27.3697	  221.00	  173.38	-1575.45	   21.80
     27.4031	  347.00	  280.75	-1556.82	   21.79
     27.4365	  493.00	  429.59	-1559.66	   21.77
     27.4699	  549.00	  552.48	-1626.55	   21.76
     27.5034	  600.00	  558.04	-1581.11	   21.74
     27.5368	  479.00	  476.95	-1621.02	   21.73
     27.5702	  425.00	  351.17	-1549.24	   21.71
     27.6036	  277.00	  229.19	-1575.26	   21.70
     27.6371	  177.00	  146.06	-1592.13	   21.68
     27.6705	  122.00	   98.84	-1599.90	   21.67
     27.7039	   79.00	   74.08	-1618.15	   21.65
     27.7373	   49.00	   60.79	-1634.86	   21.64
     27.7707	   60.00	   52.84	-1615.91	   21.62
     27.8042	   43.00	   47.50	-1627.57	   21.61
     27.8376	   35.00	   43.66	-1631.73	   21.59
     27.8710	   44.00	   40.80	-1619.87	   21.58
     27.9044	   39.00	   38.59	-1622.66	   21.57
     27.9379	   34.00	   36.87	-1625.94	   21.55
     27.9713	   29.00	   35.50	-1629.57	   21.54
     28.0047	   33.00	   34.39	-1624.46	   21.52
     28.0381	   39.00	   33.48	-1617.55	   21.51
     28.0715	   41.00	   32.73	-1614.80	   21.49
     28.1050	   29.00	   32.11	-1626.17	   21.48
     28.1384	   30.00	   31.58	-1624.65	   21.46
     28.1718	   31.00	   31.13	-1623.20	   21.45
     28.2052	   29.00	   30.75	-1624.82	   21.43
     28.2387	   28.00	   30.43	-1625.50	   21.42
     28.2721	   33.00	   30.15	-1620.22	   21.40
     28.3055	   21.00	   29.91	-1631.98	   21.39
     28.3389	   37.00	   29.70	-1615.77	   21.38
     28.3723	   30.00	   29.52	-1622.59	   21.36
     28.4058	   34.00	   29.37	-1618.44	   21.35
     28.4392	   28.00	   29.23	-1624.30	   21.33
     28.4726	   25.00	   29.12	-1627.19	   21.32
     28.5060	   23.00	   29.02	-1629.09	   21.30
     28.5395	   28.00	   28.94	-1624.01	   21.29
     28.5729	   32.00	   28.87	-1619.94	   21.27
     28.6063	   25.00	   28.81	-1626.88	   21.26
     28.6397	   34.00	   28.77	-1617.84	   21.24
     28.6731	   23.00	   28.73	-1628.80	   21.23
     28.7066	   38.00	   28.70	-1613.77	   21.22
     28.7400	   41.00	   28.69	-1610.76	   21.20
     28.7734	   30.00	   28.68	-1621.74	   21.19
     28.8068	   38.00	   28.67	-1613.74	   21.17
     28.8403	   39.00	   28.68	-1612.75	   21.16
     28.8737	   24.00	   28.69	-1627.76	   21.14
     28.9071	   21.00	   28.71	-1630.78	   21.13
     28.9405	   27.00	   28.73	-1624.80	   21.11
     28.9740	   29.00	   28.76	-1622.83	   21.10
     29.0074	   34.00	   28.80	-1617.87	   21.09
     29.0408	   32.00	   28.84	-1619.91	   21.07
     29.0742	   35.00	   28.89	-1616.96	   21.06
     29.1076	   19.00	   28.94	-1633.01	   21.04
     29.1411	   24.00	   29.00	-1628.07	   21.03
     29.1745	   35.00	   29.07	-1617.14	   21.01
     29.2079	   22.00	   29.14	-1630.21	   21.00
     29.2413	   28.00	   29.21	-1624.28	   20.98
     29.2748	   25.00	   29.30	-1627.37	   20.97
     29.3082	   29.00	   29.39	-1623.46	   20.96
     29.3416	   34.00	   29.49	-1618.55	   20.94
     29.3750	   20.00	   29.59	-1632.66	   20.93
     29.4084	   39.00	   29.70	-1613.77	   20.91
     29.4419	   36.00	   29.82	-1616.88	   20.90
     29.4753	   33.00	   29.94	-1620.01	   20.88
     29.5087	   42.00	   30.07	-1611.14	   20.87
     29.5421	   21.00	   30.21	-1632.28	   20.86
     29.5756	   29.00	   30.36	-1624.43	   20.84
     29.6090	   30.00	   30.52	-1623.59	   20.83
     29.6424	   38.00	   30.69	-1615.76	   20.81
     29.6758	   25.00	   30.86	-1628.93	   20.80
     29.7092	   30.00	   31.05	-1624.12	   20.79
     29.7427	   33.00	   31.25	-1621.32	   20.77
     29.7761	   28.00	   31.46	-1626.53	   20.76
     29.8095	   29.00	   31.68	-1625.75	   20.74
     29.8429	   29.00	   31.91	-1625.98	   20.73
     29.8764	   36.00	   32.16	-1619.23	   20.71
     29.9098	   25.00	   32.43	-1630.50	   20.70
     29.9432	   29.00	   32.71	-1626.77	   20.69
     29.9766	   37.00	   33.00	-1619.07	   20.67
     30.0101	   28.00	   33.32	-1628.38	   20.66
     30.0435	   12.00	   33.65	-1644.72	   20.64
     30.0769	   37.00	   34.00	-1620.07	   20.63
     30.1103	   46.00	   34.38	-1611.45	   20.62
     30.1437	   31.00	   34.78	-1626.85	   20.60
     30.1772	   29.00	   35.21	-1629.28	   20.59
     30.2106	   32.00	   35.66	-1626.73	   20.57
     30.2440	   34.00	   36.15	-1625.22	   20.56
     30.2774	   30.00	   36.67	-1629.74	   20.54
     30.3109	   35.00	   37.22	-1625.29	   20.53
     30.3443	   25.00	   37.82	-1635.89	   20.52
     30.3777	   41.00	   38.46	-1620.53	   20.50
     30.4111	   39.00	   39.14	-1623.21	   20.49
     30.4445	   37.00	   39.88	-1625.95	   20.47
     30.4780	   41.00	   40.67	-1622.74	   20.46
     30.5114	   36.00	   41.53	-1628.60	   20.45
     30.5448	   33.00	   42.45	-1632.52	   20.43
     30.5782	   39.00	   43.45	-1627.52	   20.42
     30.6117	   58.00	   44.54	-1609.61	   20.40
     30.6451	   45.00	   45.72	-1623.79	   20.39
     30.6785	   70.00	   47.00	-1600.07	   20.38
     30.7119	   66.00	   48.40	-1605.47	   20.36
     30.7453	   89.00	   49.94	-1584.01	   20.35
     30.7788	   70.00	   51.63	-1604.70	   20.33
     30.8122	   88.00	   53.48	-1588.55	   20.32
     30.8456	   68.00	   55.53	-1610.60	   20.31
     30.8790	   69.00	   57.80	-1611.87	   20.29
     30.9125	   66.00	   60.32	-1617.39	   20.28
     30.9459	   82.00	   63.13	-1604.20	   20.26
     30.9793	   87.00	   66.28	-1602.35	   20.25
     31.0127	   83.00	   69.82	-1609.89	   20.24
     31.0462	   77.00	   73.82	-1619.89	   20.22
     31.0796	   77.00	   78.37	-1624.44	   20.21
     31.1130	   84.00	   83.56	-1622.63	   20.20
     31.1464	  109.00	   89.52	-1603.59	   20.18
     31.1798	   96.00	   96.41	-1623.48	   20.17
     31.2133	   94.00	  104.45	-1633.51	   20.15
     31.2467	   91.00	  113.88	-1645.95	   20.14
     31.2801	  117.00	  125.05	-1631.12	   20.13
     31.3135	  116.00	  138.42	-1645.49	   20.11
     31.3470	  158.00	  154.60	-1619.67	   20.10
     31.3804	  130.00	  174.42	-1667.49	   20.08
     31.4138	  172.00	  199.06	-1650.13	   20.07
     31.4472	  213.00	  230.19	-1640.26	   20.06
     31.4806	  246.00	  270.29	-1647.36	   20.04
     31.5141	  266.00	  323.18	-1680.25	   20.03
     31.5475	  349.00	  395.30	-1669.36	   20.02
     31.5809	  471.00	  499.40	-1651.47	   20.00
     31.6143	  659.00	  664.47	-1628.54	   19.99
     31.6478	 1035.00	  955.40	-1543.47	   19.97
     31.6812	 1625.00	 1492.51	-1490.58	   19.96
     31.7146	 2695.00	 2434.02	-1362.09	   19.95
     31.7480	 4087.00	 3870.84	-1406.91	   19.93
     31.7814	 5451.00	 5541.60	-1713.67	   19.92
     31.8149	 6296.00	 6492.28	-1819.35	   19.91
     31.8483	 6177.00	 6198.15	-1644.22	   19.89
     31.8817	 5250.00	 5271.76	-1644.83	   19.88
     31.9151	 4167.00	 3952.93	-1409.00	   19.86
     31.9486	 2821.00	 2623.68	-1425.74	   19.85
     31.9820	 1926.00	 1655.65	-1352.72	   19.84
     32.0154	 1249.00	 1060.07	-1434.14	   19.82
     32.0488	  815.00	  720.94	-1529.01	   19.81
     32.0822	  521.00	  528.56	-1630.63	   19.80
     32.1157	  404.00	  411.71	-1630.78	   19.78
     32.1491	  294.00	  333.68	-1662.75	   19.77
     32.1825	  232.00	  277.61	-1668.68	   19.76
     32.2159	  178.00	  235.51	-1680.58	   19.74
     32.2494	  138.00	  203.01	-1688.08	   19.73
     32.2828	  153.00	  177.40	-1647.47	   19.71
     32.3162	  109.00	  156.85	-1670.92	   19.70
     32.3496	  110.00	  140.13	-1653.20	   19.69
     32.3831	  106.00	  126.34	-1643.41	   19.67
     32.4165	  106.00	  114.83	-1631.90	   19.66
     32.4499	   95.00	  105.13	-1633.20	   19.65
     32.4833	   72.00	   96.88	-1647.94	   19.63
     32.5167	   75.00	   89.80	-1637.87	   19.62
     32.5502	   60.00	   83.68	-1646.75	   19.61
     32.5836	   75.00	   78.35	-1626.42	   19.59
     32.6170	   81.00	   73.69	-1615.76	   19.58
     32.6504	   64.00	   69.59	-1628.66	   19.57
     32.6839	   56.00	   65.95	-1633.02	   19.55
     32.7173	   76.00	   62.72	-1609.79	   19.54
     32.7507	   55.00	   59.83	-1627.90	   19.53
     32.7841	   52.00	   57.24	-1628.31	   19.51
     32.8175	   62.00	   54.91	-1615.98	   19.50
     32.8510	   56.00	   52.80	-1619.87	   19.49
     32.8844	   38.00	   50.89	-1635.96	   19.47
     32.9178	   47.00	   49.15	-1625.22	   19.46
     32.9512	   51.00	   47.56	-1619.63	   19.44
     32.9847	   43.00	   46.11	-1626.18	   19.43
     33.0181	   48.00	   44.77	-1619.84	   19.42
     33.0515	   46.00	   43.55	-1620.62	   19.40
     33.0849	   44.00	   42.42	-1621.49	   19.39
     33.1183	   45.00	   41.37	-1619.44	   19.38
     33.1518	   33.00	   40.41	-1630.47	   19.36
     33.1852	   32.00	   39.51	-1630.58	   19.35
     33.2186	   39.00	   38.67	-1622.74	   19.34
     33.2520	   39.00	   37.90	-1621.97	   19.32
     33.2855	   24.00	   37.17	-1636.24	   19.31
     33.3189	   36.00	   36.45	-1623.52	   19.30
     33.3523	   47.00	   35.82	-1611.89	   19.28
     33.3857	   32.00	   35.23	-1626.30	   19.27
