 Fe3O4   Chi2:  1.4616  CELL:    8.39767   8.39767   8.39767   90.0000   90.0000   90.0000   SPGR: 227:1                  TEMP:      0.00
  1   3142     1.54060     1.54439     0.00000    -0.02368     0.00000    0
    90     0     1
       0.00000      15.00000
 2Theta	Yobs	Ycal	Yobs-Ycal	Backg	Posr	(hkl)	K
     15.0031	  121.00	  136.63	 -372.13	  133.94
     15.0365	  158.00	  136.63	 -335.13	  133.94
     15.0700	  129.00	  136.63	 -364.13	  133.94
     15.1034	  157.00	  136.83	 -336.33	  134.13
     15.1368	  133.00	  136.33	 -359.82	  133.63
     15.1702	  156.00	  135.82	 -336.32	  133.12
     15.2036	  165.00	  135.32	 -326.82	  132.62
     15.2371	  145.00	  134.82	 -346.32	  132.12
     15.2705	  125.00	  134.32	 -365.82	  131.61
     15.3039	  171.00	  133.82	 -319.32	  131.11
     15.3373	  130.00	  133.32	 -359.81	  130.60
     15.3708	  129.00	  132.82	 -360.31	  130.10
     15.4042	  152.00	  132.31	 -336.81	  129.60
     15.4376	  151.00	  131.81	 -337.31	  129.09
     15.4710	  155.00	  131.31	 -332.81	  128.59
     15.5044	  130.00	  130.81	 -357.31	  128.08
     15.5379	  137.00	  130.31	 -349.81	  127.58
     15.5713	  140.00	  129.81	 -346.31	  127.08
     15.6047	  115.00	  129.31	 -370.81	  126.57
     15.6381	  143.00	  128.81	 -342.31	  126.07
     15.6716	  157.00	  128.31	 -327.81	  125.56
     15.7050	  149.00	  127.81	 -335.31	  125.06
     15.7384	  141.00	  127.31	 -342.81	  124.56
     15.7718	  136.00	  126.81	 -347.31	  124.05
     15.8053	  130.00	  126.31	 -352.81	  123.55
     15.8387	  139.00	  125.81	 -343.31	  123.04
     15.8721	  144.00	  125.31	 -337.81	  122.54
     15.9055	  144.00	  124.81	 -337.31	  122.04
     15.9389	  130.00	  124.31	 -350.81	  121.53
     15.9724	  128.00	  123.82	 -352.31	  121.03
     16.0058	  124.00	  123.32	 -355.81	  120.52
     16.0392	  119.00	  122.82	 -360.32	  120.02
     16.0726	  108.00	  122.32	 -370.82	  119.52
     16.1061	  137.00	  121.82	 -341.32	  119.01
     16.1395	  131.00	  121.33	 -346.82	  118.51
     16.1729	  118.00	  120.83	 -359.33	  118.00
     16.2063	  141.00	  120.33	 -335.83	  117.50
     16.2397	  129.00	  119.84	 -347.33	  117.00
     16.2732	  126.00	  119.34	 -349.84	  116.49
     16.3066	  118.00	  118.85	 -357.34	  115.99
     16.3400	  108.00	  118.35	 -366.85	  115.48
     16.3734	  115.00	  117.86	 -359.35	  114.98
     16.4069	  142.00	  117.36	 -331.86	  114.48
     16.4403	  132.00	  116.87	 -341.37	  113.97
     16.4737	  122.00	  116.38	 -350.87	  113.47
     16.5071	   94.00	  115.88	 -378.38	  112.96
     16.5405	  129.00	  115.39	 -342.89	  112.46
     16.5740	  140.00	  114.90	 -331.40	  111.96
     16.6074	  143.00	  114.41	 -327.91	  111.45
     16.6408	  121.00	  113.92	 -349.42	  110.95
     16.6742	  132.00	  113.44	 -337.93	  110.44
     16.7077	  124.00	  112.95	 -345.45	  109.94
     16.7411	  116.00	  112.50	 -352.99	  109.47
     16.7745	  103.00	  112.13	 -365.62	  109.08
     16.8079	  106.00	  111.76	 -362.25	  108.69
     16.8414	  114.00	  111.39	 -353.89	  108.30
     16.8748	  127.00	  111.02	 -340.52	  107.91
     16.9082	  126.00	  110.66	 -341.16	  107.52
     16.9416	  100.00	  110.30	 -366.79	  107.13
     16.9750	  116.00	  109.94	 -350.43	  106.74
     17.0085	  139.00	  109.58	 -327.08	  106.35
     17.0419	  121.00	  109.22	 -344.72	  105.96
     17.0753	  103.00	  108.87	 -362.37	  105.57
     17.1087	  105.00	  108.52	 -360.02	  105.19
     17.1422	  121.00	  108.18	 -343.68	  104.80
     17.1756	  112.00	  107.84	 -352.33	  104.41
     17.2090	  115.00	  107.50	 -349.00	  104.02
     17.2424	  122.00	  107.17	 -341.67	  103.63
     17.2758	  119.00	  106.84	 -344.34	  103.24
     17.3093	  110.00	  106.52	 -353.02	  102.85
     17.3427	  110.00	  106.21	 -352.71	  102.46
     17.3761	  111.00	  105.91	 -351.41	  102.07
     17.4095	  103.00	  105.62	 -359.11	  101.68
     17.4430	   87.00	  105.34	 -374.83	  101.29
     17.4764	  119.00	  105.07	 -342.57	  100.90
     17.5098	  141.00	  104.82	 -320.31	  100.51
     17.5432	  119.00	  104.58	 -342.08	  100.12
     17.5766	  111.00	  104.37	 -349.87	   99.73
     17.6101	   95.00	  104.19	 -365.69	   99.34
     17.6435	  119.00	  104.04	 -341.54	   98.95
     17.6769	  116.00	  103.93	 -344.43	   98.56
     17.7103	  105.00	  103.87	 -355.37	   98.18
     17.7438	  109.00	  103.87	 -351.36	   97.79
     17.7772	  108.00	  103.94	 -352.44	   97.40
     17.8106	  125.00	  104.12	 -335.62	   97.01
     17.8440	  103.00	  104.42	 -357.92	   96.62
     17.8774	   92.00	  104.90	 -369.39	   96.23
     17.9109	  100.00	  105.60	 -362.10	   95.84
     17.9443	  103.00	  106.63	 -360.13	   95.45
     17.9777	  122.00	  108.17	 -342.67	   95.06
     18.0111	   97.00	  110.53	 -370.03	   94.67
     18.0446	  116.00	  114.29	 -354.79	   94.28
     18.0780	  109.00	  120.41	 -367.91	   93.89
     18.1114	  125.00	  130.23	 -361.73	   93.50
     18.1448	  131.00	  145.22	 -370.72	   93.11
     18.1783	  158.00	  166.21	 -364.71	   92.72
     18.2117	  158.00	  191.48	 -389.98	   92.33
     18.2451	  149.00	  213.51	 -421.00	   91.94
     18.2785	  192.00	  220.40	 -384.90	   91.56
     18.3119	  198.00	  208.05	 -366.54	   91.17
     18.3454	  179.00	  184.10	 -361.59	   90.78
     18.3788	  167.00	  158.99	 -348.49	   90.39
     18.4122	  129.00	  138.59	 -366.09	   90.00
     18.4456	  113.00	  124.02	 -367.51	   89.61
     18.4791	  106.00	  114.28	 -364.78	   89.22
     18.5125	  106.00	  107.92	 -358.42	   88.83
     18.5459	  108.00	  103.70	 -352.20	   88.44
     18.5793	  109.00	  100.74	 -348.24	   88.05
     18.6127	  100.00	   98.54	 -355.04	   87.66
     18.6462	  105.00	   96.80	 -348.29	   87.27
     18.6796	   91.00	   95.36	 -360.86	   86.88
     18.7130	  100.00	   94.15	 -350.65	   86.49
     18.7464	   89.00	   93.09	 -360.59	   86.10
     18.7799	   92.00	   92.21	 -356.70	   85.76
     18.8133	   91.00	   91.50	 -356.99	   85.50
     18.8467	   94.00	   90.86	 -353.35	   85.23
     18.8801	  105.00	   90.28	 -341.77	   84.97
     18.9135	  100.00	   89.75	 -346.24	   84.71
     18.9470	   96.00	   89.25	 -349.75	   84.45
     18.9804	  103.00	   88.79	 -342.29	   84.18
     19.0138	   83.00	   88.35	 -361.85	   83.92
     19.0472	   85.00	   87.94	 -359.43	   83.66
     19.0807	   81.00	   87.54	 -363.04	   83.40
     19.1141	   86.00	   87.16	 -357.66	   83.14
     19.1475	  106.00	   86.79	 -337.29	   82.87
     19.1809	   92.00	   86.43	 -350.93	   82.61
     19.2144	   83.00	   86.09	 -359.58	   82.35
     19.2478	   77.00	   85.75	 -365.24	   82.09
     19.2812	   72.00	   85.42	 -369.91	   81.82
     19.3146	   77.00	   85.09	 -364.59	   81.56
     19.3480	   90.00	   84.77	 -351.27	   81.30
     19.3815	   81.00	   84.46	 -359.96	   81.04
     19.4149	   91.00	   84.15	 -349.65	   80.78
     19.4483	  103.00	   83.84	 -337.34	   80.51
     19.4817	   76.00	   83.54	 -364.04	   80.25
     19.5152	   82.00	   83.24	 -357.74	   79.99
     19.5486	   87.00	   82.95	 -352.44	   79.73
     19.5820	   86.00	   82.65	 -353.15	   79.46
     19.6154	   89.00	   82.36	 -349.86	   79.20
     19.6488	   83.00	   82.07	 -355.57	   78.94
     19.6823	   70.00	   81.78	 -368.28	   78.68
     19.7157	   74.00	   81.50	 -364.00	   78.42
     19.7491	   70.00	   81.21	 -367.71	   78.15
     19.7825	   74.00	   80.93	 -363.43	   77.89
     19.8160	   94.00	   80.65	 -343.15	   77.63
     19.8494	   75.00	   80.37	 -361.87	   77.37
     19.8828	   96.00	   80.09	 -340.59	   77.10
     19.9162	   97.00	   79.81	 -339.31	   76.84
     19.9496	   97.00	   79.54	 -339.03	   76.58
     19.9831	   83.00	   79.26	 -352.76	   76.32
     20.0165	   84.00	   78.99	 -351.48	   76.05
     20.0499	   78.00	   78.71	 -357.21	   75.79
     20.0833	   79.00	   78.44	 -355.93	   75.53
     20.1168	   77.00	   78.16	 -357.66	   75.27
     20.1502	   70.00	   77.89	 -364.39	   75.01
     20.1836	   76.00	   77.62	 -358.12	   74.74
     20.2170	   76.00	   77.35	 -357.84	   74.48
     20.2505	   92.00	   77.08	 -341.57	   74.22
     20.2839	   81.00	   76.80	 -352.30	   73.96
     20.3173	   65.00	   76.53	 -368.03	   73.69
     20.3507	   87.00	   76.26	 -345.76	   73.43
     20.3841	   88.00	   75.99	 -344.49	   73.17
     20.4176	   72.00	   75.72	 -360.22	   72.91
     20.4510	   70.00	   75.46	 -361.95	   72.65
     20.4844	   95.00	   75.19	 -336.68	   72.38
     20.5178	   78.00	   74.92	 -353.42	   72.12
     20.5513	   70.00	   74.65	 -361.15	   71.86
     20.5847	   78.00	   74.38	 -352.88	   71.60
     20.6181	   75.00	   74.12	 -355.61	   71.33
     20.6515	   90.00	   73.85	 -340.35	   71.07
     20.6849	   79.00	   73.58	 -351.08	   70.81
     20.7184	   74.00	   73.31	 -355.81	   70.55
     20.7518	   82.00	   73.05	 -347.54	   70.29
     20.7852	   66.00	   72.78	 -363.28	   70.02
     20.8186	   74.00	   72.51	 -355.01	   69.76
     20.8521	   68.00	   72.25	 -360.74	   69.50
     20.8855	   76.00	   71.98	 -352.48	   69.24
     20.9189	   81.00	   71.72	 -347.21	   68.97
     20.9523	   52.00	   71.45	 -375.95	   68.71
     20.9857	   59.00	   71.18	 -368.68	   68.45
     21.0192	   79.00	   70.92	 -348.42	   68.19
     21.0526	   91.00	   70.65	 -336.15	   67.93
     21.0860	   72.00	   70.39	 -354.88	   67.66
     21.1194	   81.00	   70.12	 -345.62	   67.40
     21.1529	   74.00	   69.86	 -352.35	   67.14
     21.1863	   66.00	   69.67	 -360.17	   66.95
     21.2197	   69.00	   69.49	 -356.99	   66.78
     21.2531	   77.00	   69.31	 -348.81	   66.60
     21.2865	   68.00	   69.13	 -357.63	   66.42
     21.3200	   84.00	   68.95	 -341.45	   66.25
     21.3534	   74.00	   68.77	 -351.27	   66.07
     21.3868	   66.00	   68.59	 -359.09	   65.89
     21.4202	   63.00	   68.41	 -361.91	   65.71
     21.4537	   61.00	   68.23	 -363.73	   65.54
     21.4871	   84.00	   68.05	 -340.55	   65.36
     21.5205	   64.00	   67.88	 -360.37	   65.18
     21.5539	   81.00	   67.70	 -343.19	   65.01
     21.5874	   78.00	   67.52	 -346.02	   64.83
     21.6208	   66.00	   67.34	 -357.84	   64.65
     21.6542	   77.00	   67.16	 -346.66	   64.47
     21.6876	   74.00	   66.98	 -349.48	   64.30
     21.7210	   81.00	   66.80	 -342.30	   64.12
     21.7545	   81.00	   66.62	 -342.12	   63.94
     21.7879	   74.00	   66.44	 -348.94	   63.77
     21.8213	   78.00	   66.27	 -344.76	   63.59
     21.8547	   65.00	   66.09	 -357.59	   63.41
     21.8882	   59.00	   65.91	 -363.41	   63.24
     21.9216	   82.00	   65.73	 -340.23	   63.06
     21.9550	   69.00	   65.55	 -353.05	   62.88
     21.9884	   75.00	   65.37	 -346.87	   62.70
     22.0218	   58.00	   65.20	 -363.69	   62.53
     22.0553	   73.00	   65.02	 -348.51	   62.35
     22.0887	   58.00	   64.84	 -363.34	   62.17
     22.1221	   74.00	   64.66	 -347.16	   62.00
     22.1555	   72.00	   64.44	 -348.94	   61.82
     22.1890	   72.00	   64.24	 -348.74	   61.64
     22.2224	   76.00	   64.06	 -344.56	   61.46
     22.2558	   75.00	   63.88	 -345.38	   61.29
     22.2892	   59.00	   63.71	 -361.20	   61.11
     22.3226	   61.00	   63.53	 -359.03	   60.93
     22.3561	   59.00	   63.35	 -360.85	   60.76
     22.3895	   58.00	   63.18	 -361.67	   60.58
     22.4229	   63.00	   63.00	 -356.50	   60.40
     22.4563	   74.00	   62.82	 -345.32	   60.23
     22.4898	   65.00	   62.64	 -354.14	   60.05
     22.5232	   60.00	   62.47	 -358.96	   59.87
     22.5566	   52.00	   62.29	 -366.79	   59.69
     22.5900	   71.00	   62.11	 -347.61	   59.52
     22.6234	   52.00	   61.94	 -366.43	   59.34
     22.6569	   65.00	   61.76	 -353.26	   59.16
     22.6903	   75.00	   61.58	 -343.08	   58.99
     22.7237	   38.00	   61.40	 -379.90	   58.81
     22.7571	   65.00	   61.23	 -352.73	   58.63
     22.7906	   55.00	   61.05	 -362.55	   58.45
     22.8240	   58.00	   60.87	 -359.37	   58.28
     22.8574	   57.00	   60.70	 -360.19	   58.10
     22.8908	   68.00	   60.52	 -349.02	   57.92
     22.9243	   60.00	   60.34	 -356.84	   57.75
     22.9577	   63.00	   60.17	 -353.66	   57.57
     22.9911	   66.00	   59.99	 -350.49	   57.39
     23.0245	   52.00	   59.81	 -364.31	   57.22
     23.0579	   57.00	   59.63	 -359.13	   57.04
     23.0914	   62.00	   59.46	 -353.95	   56.86
     23.1248	   65.00	   59.28	 -350.78	   56.68
     23.1582	   65.00	   59.10	 -350.60	   56.51
     23.1916	   65.00	   58.93	 -350.42	   56.33
     23.2251	   59.00	   58.75	 -356.25	   56.15
     23.2585	   61.00	   58.57	 -354.07	   55.98
     23.2919	   70.00	   58.39	 -344.89	   55.80
     23.3253	   57.00	   58.22	 -357.72	   55.62
     23.3587	   52.00	   58.04	 -362.54	   55.44
     23.3922	   69.00	   57.86	 -345.36	   55.27
     23.4256	   55.00	   57.69	 -359.18	   55.09
     23.4590	   62.00	   57.51	 -352.01	   54.91
     23.4924	   64.00	   57.33	 -349.83	   54.74
     23.5259	   68.00	   57.16	 -345.65	   54.56
     23.5593	   61.00	   56.98	 -352.48	   54.38
     23.5927	   52.00	   56.80	 -361.30	   54.21
     23.6261	   74.00	   56.62	 -339.12	   54.03
     23.6595	   64.00	   56.45	 -348.94	   53.85
     23.6930	   47.00	   56.27	 -365.77	   53.67
     23.7264	   64.00	   56.09	 -348.59	   53.50
     23.7598	   48.00	   55.92	 -364.41	   53.32
     23.7932	   63.00	   55.74	 -349.24	   53.14
     23.8267	   72.00	   55.56	 -340.06	   52.97
     23.8601	   65.00	   55.38	 -346.88	   52.79
     23.8935	   50.00	   55.21	 -361.71	   52.61
     23.9269	   62.00	   55.03	 -349.53	   52.43
     23.9604	   65.00	   54.85	 -346.35	   52.26
     23.9938	   48.00	   54.68	 -363.17	   52.08
     24.0272	   59.00	   54.50	 -352.00	   51.90
     24.0606	   72.00	   54.32	 -338.82	   51.73
     24.0940	   72.00	   54.15	 -338.64	   51.55
     24.1275	   59.00	   53.97	 -351.47	   51.37
     24.1609	   47.00	   53.79	 -363.29	   51.20
     24.1943	   55.00	   53.61	 -355.11	   51.02
     24.2277	   57.00	   53.44	 -352.93	   50.84
     24.2612	   52.00	   53.26	 -357.76	   50.66
     24.2946	   58.00	   53.08	 -351.58	   50.49
     24.3280	   64.00	   52.91	 -345.40	   50.31
     24.3614	   37.00	   52.73	 -372.23	   50.13
     24.3948	   69.00	   52.55	 -340.05	   49.96
     24.4283	   45.00	   52.37	 -363.87	   49.78
     24.4617	   44.00	   52.21	 -364.71	   49.62
     24.4951	   78.00	   52.14	 -330.64	   49.54
     24.5285	   49.00	   52.06	 -359.56	   49.47
     24.5620	   56.00	   51.99	 -352.49	   49.39
     24.5954	   47.00	   51.92	 -361.41	   49.32
     24.6288	   55.00	   51.84	 -353.34	   49.25
     24.6622	   58.00	   51.77	 -350.27	   49.17
     24.6956	   57.00	   51.69	 -351.19	   49.10
     24.7291	   63.00	   51.62	 -345.12	   49.02
     24.7625	   59.00	   51.54	 -349.04	   48.95
     24.7959	   56.00	   51.47	 -351.97	   48.87
     24.8293	   51.00	   51.40	 -356.89	   48.80
     24.8628	   44.00	   51.32	 -363.82	   48.73
     24.8962	   36.00	   51.25	 -371.74	   48.65
     24.9296	   41.00	   51.17	 -366.67	   48.58
     24.9630	   58.00	   51.10	 -349.60	   48.50
     24.9964	   49.00	   51.02	 -358.52	   48.43
     25.0299	   46.00	   50.95	 -361.45	   48.35
     25.0633	   49.00	   50.88	 -358.37	   48.28
     25.0967	   50.00	   50.80	 -357.30	   48.21
     25.1301	   59.00	   50.73	 -348.22	   48.13
     25.1636	   57.00	   50.65	 -350.15	   48.06
     25.1970	   48.00	   50.58	 -359.08	   47.98
     25.2304	   48.00	   50.50	 -359.00	   47.91
     25.2638	   44.00	   50.43	 -362.93	   47.83
     25.2973	   56.00	   50.36	 -350.85	   47.76
     25.3307	   48.00	   50.28	 -358.78	   47.69
     25.3641	   50.00	   50.21	 -356.70	   47.61
     25.3975	   51.00	   50.13	 -355.63	   47.54
     25.4309	   39.00	   50.06	 -367.56	   47.46
     25.4644	   56.00	   49.98	 -350.48	   47.39
     25.4978	   60.00	   49.91	 -346.41	   47.31
     25.5312	   57.00	   49.84	 -349.33	   47.24
     25.5646	   66.00	   49.76	 -340.26	   47.17
     25.5981	   37.00	   49.69	 -369.18	   47.09
     25.6315	   48.00	   49.61	 -358.11	   47.02
     25.6649	   50.00	   49.54	 -356.04	   46.94
     25.6983	   48.00	   49.46	 -357.96	   46.87
     25.7317	   52.00	   49.39	 -353.89	   46.79
     25.7652	   57.00	   49.32	 -348.81	   46.72
     25.7986	   43.00	   49.24	 -362.74	   46.65
     25.8320	   51.00	   49.17	 -354.66	   46.57
     25.8654	   60.00	   49.09	 -345.59	   46.50
     25.8989	   48.00	   49.02	 -357.52	   46.42
     25.9323	   56.00	   48.94	 -349.44	   46.35
     25.9657	   57.00	   48.87	 -348.37	   46.27
     25.9991	   51.00	   48.80	 -354.29	   46.20
     26.0325	   51.00	   48.72	 -354.22	   46.13
     26.0660	   50.00	   48.65	 -355.14	   46.05
     26.0994	   51.00	   48.57	 -354.07	   45.98
     26.1328	   52.00	   48.50	 -353.00	   45.90
     26.1662	   34.00	   48.67	 -371.17	   45.83
     26.1997	   65.00	   48.60	 -340.10	   45.75
     26.2331	   46.00	   48.65	 -359.15	   45.68
     26.2665	   42.00	   48.58	 -363.08	   45.61
     26.2999	   47.00	   48.52	 -358.01	   45.53
     26.3334	   55.00	   48.45	 -349.95	   45.46
     26.3668	   44.00	   48.38	 -360.88	   45.38
     26.4002	   50.00	   48.31	 -354.81	   45.31
     26.4336	   46.00	   48.25	 -358.74	   45.23
     26.4670	   46.00	   48.18	 -358.68	   45.16
     26.5005	   51.00	   48.11	 -353.61	   45.09
     26.5339	   42.00	   48.05	 -362.55	   45.01
     26.5673	   48.00	   47.98	 -356.48	   44.94
     26.6007	   28.00	   47.92	 -376.41	   44.86
     26.6342	   38.00	   47.85	 -366.35	   44.79
     26.6676	   46.00	   47.79	 -358.28	   44.71
     26.7010	   51.00	   47.72	 -353.22	   44.64
     26.7344	   44.00	   47.66	 -360.15	   44.56
     26.7678	   61.00	   47.59	 -343.09	   44.49
     26.8013	   58.00	   47.53	 -346.03	   44.42
     26.8347	   37.00	   47.46	 -366.96	   44.34
     26.8681	   52.00	   47.40	 -351.90	   44.27
     26.9015	   57.00	   47.34	 -346.84	   44.19
     26.9350	   46.00	   47.28	 -357.77	   44.12
     26.9684	   47.00	   47.21	 -356.71	   44.04
     27.0018	   50.00	   47.15	 -353.65	   43.97
     27.0352	   48.00	   47.09	 -355.59	   43.90
     27.0686	   52.00	   47.03	 -351.53	   43.82
     27.1021	   43.00	   46.97	 -360.47	   43.75
     27.1355	   43.00	   46.91	 -360.41	   43.67
     27.1689	   42.00	   46.85	 -361.35	   43.60
     27.2023	   41.00	   46.79	 -362.29	   43.52
     27.2358	   46.00	   46.73	 -357.23	   43.45
     27.2692	   60.00	   46.67	 -343.17	   43.38
     27.3026	   37.00	   46.62	 -366.11	   43.30
     27.3360	   41.00	   46.56	 -362.06	   43.23
     27.3694	   47.00	   46.50	 -356.00	   43.15
     27.4029	   47.00	   46.45	 -355.95	   43.08
     27.4363	   51.00	   46.39	 -351.89	   43.00
     27.4697	   44.00	   46.34	 -358.84	   42.93
     27.5031	   54.00	   46.29	 -348.78	   42.86
     27.5366	   54.00	   46.24	 -348.73	   42.78
     27.5700	   38.00	   46.17	 -364.67	   42.69
     27.6034	   38.00	   46.10	 -364.60	   42.60
     27.6368	   56.00	   46.03	 -346.53	   42.51
     27.6703	   44.00	   45.97	 -358.46	   42.42
     27.7037	   56.00	   45.90	 -346.40	   42.32
     27.7371	   43.00	   45.84	 -359.33	   42.23
     27.7705	   34.00	   45.77	 -368.27	   42.14
     27.8039	   33.00	   45.71	 -369.21	   42.04
     27.8374	   43.00	   45.65	 -359.15	   41.95
     27.8708	   48.00	   45.59	 -354.09	   41.86
     27.9042	   46.00	   45.53	 -356.03	   41.77
     27.9376	   70.00	   45.48	 -331.97	   41.67
     27.9711	   29.00	   45.42	 -372.92	   41.58
     28.0045	   49.00	   45.37	 -352.87	   41.49
     28.0379	   59.00	   45.32	 -342.82	   41.39
     28.0713	   36.00	   45.27	 -365.77	   41.30
     28.1047	   45.00	   45.23	 -356.72	   41.21
     28.1382	   44.00	   45.18	 -357.68	   41.12
     28.1716	   35.00	   45.14	 -366.64	   41.02
     28.2050	   56.00	   45.10	 -345.60	   40.93
     28.2384	   36.00	   45.07	 -365.56	   40.84
     28.2719	   37.00	   45.04	 -364.53	   40.74
     28.3053	   44.00	   45.01	 -357.50	   40.65
     28.3387	   45.00	   44.98	 -356.48	   40.56
     28.3721	   47.00	   44.96	 -354.46	   40.47
