 Fe3O4   Chi2:  3.1369  CELL:    8.39205   8.39205   8.39205   90.0000   90.0000   90.0000   SPGR: 227:1                  TEMP:      0.00
  1   2543     1.54060     1.54439     0.00000     0.03480     0.00000    0
    84     0     1
       0.00000      15.00000
 2Theta	Yobs	Ycal	Yobs-Ycal	Backg	Posr	(hkl)	K
     15.0167	  370.00	  368.33	 -306.58	  355.15
     15.0501	  394.00	  368.34	 -282.59	  355.15
     15.0836	  366.00	  368.35	 -310.60	  355.15
     15.1170	  379.00	  368.37	 -297.62	  355.15
     15.1504	  342.00	  368.38	 -334.63	  355.15
     15.1838	  378.00	  368.61	 -298.86	  355.37
     15.2172	  413.00	  367.41	 -262.66	  354.15
     15.2507	  348.00	  366.20	 -326.45	  352.93
     15.2841	  429.00	  365.00	 -244.25	  351.71
     15.3175	  360.00	  363.80	 -312.05	  350.50
     15.3509	  381.00	  362.60	 -289.85	  349.28
     15.3844	  395.00	  361.40	 -274.65	  348.06
     15.4178	  372.00	  360.19	 -296.44	  346.84
     15.4512	  365.00	  358.99	 -302.24	  345.62
     15.4846	  338.00	  357.80	 -328.05	  344.40
     15.5180	  383.00	  356.60	 -281.85	  343.18
     15.5515	  326.00	  355.40	 -337.65	  341.96
     15.5849	  364.00	  354.20	 -298.45	  340.74
     15.6183	  352.00	  353.00	 -309.25	  339.52
     15.6517	  368.00	  351.81	 -292.06	  338.31
     15.6852	  330.00	  350.61	 -328.86	  337.09
     15.7186	  387.00	  349.42	 -270.67	  335.87
     15.7520	  374.00	  348.23	 -282.48	  334.65
     15.7854	  352.00	  347.04	 -303.29	  333.43
     15.8189	  396.00	  345.84	 -258.09	  332.21
     15.8523	  365.00	  344.65	 -287.90	  330.99
     15.8857	  359.00	  343.47	 -292.72	  329.77
     15.9191	  371.00	  342.28	 -279.53	  328.55
     15.9525	  336.00	  341.09	 -313.34	  327.33
     15.9860	  353.00	  339.91	 -295.16	  326.12
     16.0194	  354.00	  338.73	 -292.98	  324.90
     16.0528	  425.00	  337.54	 -220.79	  323.68
     16.0862	  369.00	  336.19	 -275.44	  322.29
     16.1197	  346.00	  334.83	 -297.08	  320.88
     16.1531	  348.00	  333.46	 -293.71	  319.47
     16.1865	  359.00	  332.10	 -281.35	  318.06
     16.2199	  350.00	  330.74	 -288.99	  316.66
     16.2533	  344.00	  329.38	 -293.63	  315.25
     16.2868	  307.00	  328.02	 -329.27	  313.84
     16.3202	  340.00	  326.67	 -294.92	  312.43
     16.3536	  360.00	  325.32	 -273.57	  311.02
     16.3870	  344.00	  323.97	 -288.22	  309.62
     16.4205	  341.00	  322.62	 -289.87	  308.21
     16.4539	  372.00	  321.28	 -257.53	  306.80
     16.4873	  317.00	  319.94	 -311.19	  305.39
     16.5207	  338.00	  318.61	 -288.86	  303.98
     16.5541	  345.00	  317.27	 -280.52	  302.58
     16.5876	  329.00	  315.95	 -295.20	  301.17
     16.6210	  367.00	  314.63	 -255.88	  299.76
     16.6544	  338.00	  313.31	 -283.56	  298.35
     16.6878	  340.00	  312.00	 -280.25	  296.94
     16.7213	  322.00	  310.69	 -296.94	  295.54
     16.7547	  353.00	  309.39	 -264.64	  294.13
     16.7881	  353.00	  308.10	 -263.35	  292.72
     16.8215	  288.00	  306.82	 -327.07	  291.31
     16.8549	  324.00	  305.71	 -289.96	  290.07
     16.8884	  373.00	  304.94	 -240.19	  289.16
     16.9218	  357.00	  304.18	 -255.43	  288.25
     16.9552	  314.00	  303.43	 -297.68	  287.34
     16.9886	  338.00	  302.69	 -272.94	  286.43
     17.0221	  367.00	  301.96	 -243.21	  285.52
     17.0555	  327.00	  301.25	 -282.50	  284.61
     17.0889	  320.00	  300.55	 -288.80	  283.70
     17.1223	  350.00	  299.87	 -258.12	  282.79
     17.1558	  336.00	  299.21	 -271.46	  281.88
     17.1892	  330.00	  298.57	 -276.82	  280.98
     17.2226	  326.00	  297.96	 -280.21	  280.07
     17.2560	  340.00	  297.36	 -265.61	  279.16
     17.2894	  316.00	  296.80	 -289.05	  278.25
     17.3229	  328.00	  296.27	 -276.52	  277.34
     17.3563	  341.00	  295.78	 -263.03	  276.43
     17.3897	  352.00	  295.32	 -251.57	  275.52
     17.4231	  349.00	  294.92	 -254.17	  274.61
     17.4566	  329.00	  294.56	 -273.81	  273.70
     17.4900	  298.00	  294.27	 -304.52	  272.79
     17.5234	  323.00	  294.04	 -279.29	  271.88
     17.5568	  327.00	  293.90	 -275.15	  270.97
     17.5902	  325.00	  293.85	 -277.10	  270.06
     17.6237	  307.00	  293.90	 -295.15	  269.15
     17.6571	  316.00	  294.09	 -286.34	  268.24
     17.6905	  319.00	  294.42	 -283.67	  267.33
     17.7239	  298.00	  294.93	 -305.18	  266.42
     17.7574	  352.00	  295.66	 -251.91	  265.51
     17.7908	  285.00	  296.64	 -319.89	  264.60
     17.8242	  307.00	  297.94	 -299.19	  263.69
     17.8576	  306.00	  299.60	 -301.85	  262.78
     17.8910	  275.00	  301.72	 -334.97	  261.87
     17.9245	  280.00	  304.37	 -332.62	  260.96
     17.9579	  307.00	  307.70	 -308.95	  260.08
     17.9913	  334.00	  311.87	 -286.12	  259.28
     18.0247	  313.00	  316.92	 -312.17	  258.48
     18.0582	  356.00	  323.00	 -275.25	  257.67
     18.0916	  299.00	  330.20	 -339.45	  256.87
     18.1250	  300.00	  338.58	 -346.83	  256.06
     18.1584	  310.00	  348.07	 -346.32	  255.26
     18.1919	  325.00	  358.37	 -341.62	  254.45
     18.2253	  343.00	  368.87	 -334.12	  253.65
     18.2587	  306.00	  378.54	 -380.79	  252.84
     18.2921	  343.00	  386.06	 -351.31	  252.04
     18.3255	  392.00	  390.05	 -306.30	  251.23
     18.3590	  375.00	  389.63	 -322.88	  250.43
     18.3924	  338.00	  384.72	 -354.97	  249.63
     18.4258	  353.00	  376.12	 -331.37	  248.82
     18.4592	  315.00	  365.13	 -358.38	  248.02
     18.4927	  350.00	  353.12	 -311.37	  247.21
     18.5261	  321.00	  341.14	 -328.39	  246.41
     18.5595	  321.00	  329.89	 -317.14	  245.60
     18.5929	  302.00	  319.70	 -325.95	  244.80
     18.6263	  268.00	  310.69	 -350.94	  243.99
     18.6598	  295.00	  302.81	 -316.06	  243.19
     18.6932	  271.00	  295.97	 -333.22	  242.38
     18.7266	  283.00	  290.04	 -315.29	  241.58
     18.7600	  304.00	  284.90	 -289.15	  240.77
     18.7935	  298.00	  280.43	 -290.68	  239.97
     18.8269	  285.00	  276.51	 -299.76	  239.17
     18.8603	  284.00	  273.05	 -297.30	  238.36
     18.8937	  272.00	  269.98	 -306.23	  237.56
     18.9271	  275.00	  267.23	 -300.48	  236.75
     18.9606	  284.00	  264.75	 -289.00	  235.95
     18.9940	  275.00	  262.48	 -295.73	  235.14
     19.0274	  241.00	  260.40	 -327.65	  234.34
     19.0608	  277.00	  258.48	 -289.73	  233.53
     19.0943	  232.00	  256.69	 -332.94	  232.73
     19.1277	  259.00	  255.01	 -304.26	  231.92
     19.1611	  265.00	  253.29	 -296.54	  230.99
     19.1945	  286.00	  251.65	 -273.90	  230.05
     19.2280	  284.00	  250.08	 -274.33	  229.11
     19.2614	  253.00	  248.58	 -303.83	  228.17
     19.2948	  253.00	  247.13	 -302.38	  227.23
     19.3282	  253.00	  245.72	 -300.97	  226.29
     19.3616	  237.00	  244.36	 -315.61	  225.35
     19.3951	  263.00	  243.04	 -288.29	  224.41
     19.4285	  218.00	  241.75	 -332.00	  223.48
     19.4619	  229.00	  240.48	 -319.73	  222.54
     19.4953	  229.00	  239.25	 -318.50	  221.60
     19.5288	  225.00	  238.04	 -321.29	  220.66
     19.5622	  267.00	  236.85	 -278.10	  219.72
     19.5956	  243.00	  235.67	 -300.92	  218.78
     19.6290	  259.00	  234.52	 -283.77	  217.84
     19.6624	  232.00	  233.38	 -309.63	  216.91
     19.6959	  263.00	  232.25	 -277.50	  215.97
     19.7293	  226.00	  231.14	 -313.39	  215.03
     19.7627	  248.00	  230.04	 -290.29	  214.09
     19.7961	  233.00	  228.95	 -304.20	  213.15
     19.8296	  263.00	  227.87	 -273.12	  212.21
     19.8630	  236.00	  226.80	 -299.05	  211.27
     19.8964	  248.00	  225.74	 -285.99	  210.34
     19.9298	  210.00	  224.68	 -322.93	  209.40
     19.9632	  240.00	  223.63	 -291.88	  208.46
     19.9967	  209.00	  222.59	 -321.84	  207.52
     20.0301	  205.00	  221.55	 -324.80	  206.58
     20.0635	  215.00	  220.52	 -313.77	  205.64
     20.0969	  234.00	  219.50	 -293.75	  204.70
     20.1304	  236.00	  218.48	 -290.73	  203.76
     20.1638	  240.00	  217.46	 -285.71	  202.83
     20.1972	  218.00	  216.45	 -306.70	  201.89
     20.2306	  255.00	  215.44	 -268.69	  200.95
     20.2640	  224.00	  214.43	 -298.68	  200.01
     20.2975	  199.00	  213.43	 -322.68	  199.07
     20.3309	  238.00	  212.61	 -282.86	  198.31
     20.3643	  197.00	  211.89	 -323.14	  197.64
     20.3977	  216.00	  211.16	 -303.41	  196.97
     20.4312	  255.00	  210.44	 -263.69	  196.30
     20.4646	  228.00	  209.72	 -289.97	  195.63
     20.4980	  234.00	  209.00	 -283.25	  194.96
     20.5314	  228.00	  208.29	 -288.54	  194.29
     20.5649	  214.00	  207.57	 -301.82	  193.62
     20.5983	  256.00	  206.86	 -259.11	  192.95
     20.6317	  224.00	  206.15	 -290.40	  192.28
     20.6651	  221.00	  205.44	 -292.69	  191.61
     20.6985	  226.00	  204.74	 -286.99	  190.94
     20.7320	  205.00	  204.03	 -307.28	  190.27
     20.7654	  213.00	  203.33	 -298.58	  189.60
     20.7988	  248.00	  202.62	 -262.87	  188.92
     20.8322	  210.00	  201.92	 -300.17	  188.25
     20.8657	  212.00	  201.22	 -297.47	  187.58
     20.8991	  184.00	  200.52	 -324.77	  186.91
     20.9325	  203.00	  199.83	 -305.08	  186.24
     20.9659	  219.00	  199.13	 -288.38	  185.57
     20.9993	  196.00	  198.43	 -310.68	  184.90
     21.0328	  222.00	  197.74	 -283.99	  184.23
     21.0662	  247.00	  197.05	 -258.30	  183.56
     21.0996	  214.00	  196.35	 -290.60	  182.89
     21.1330	  223.00	  195.66	 -280.91	  182.22
     21.1665	  213.00	  194.97	 -290.22	  181.55
     21.1999	  222.00	  194.28	 -280.53	  180.88
     21.2333	  207.00	  193.59	 -294.84	  180.21
     21.2667	  208.00	  192.90	 -293.15	  179.54
     21.3001	  191.00	  192.21	 -309.46	  178.87
     21.3336	  199.00	  191.52	 -300.77	  178.20
     21.3670	  191.00	  190.83	 -308.08	  177.53
     21.4004	  209.00	  190.15	 -289.40	  176.86
     21.4338	  220.00	  189.46	 -277.71	  176.19
     21.4673	  185.00	  188.77	 -312.02	  175.52
     21.5007	  214.00	  188.13	 -282.38	  174.89
     21.5341	  215.00	  187.57	 -280.82	  174.34
     21.5675	  212.00	  187.02	 -283.27	  173.80
     21.6010	  174.00	  186.46	 -320.71	  173.26
     21.6344	  193.00	  185.91	 -301.16	  172.72
     21.6678	  200.00	  185.35	 -293.60	  172.18
     21.7012	  192.00	  184.80	 -301.05	  171.64
     21.7346	  185.00	  184.25	 -307.50	  171.10
     21.7681	  207.00	  183.69	 -284.94	  170.55
     21.8015	  205.00	  183.14	 -286.39	  170.01
     21.8349	  203.00	  182.59	 -287.84	  169.47
     21.8683	  179.00	  182.03	 -311.28	  168.93
     21.9018	  200.00	  181.48	 -289.73	  168.39
     21.9352	  219.00	  180.93	 -270.18	  167.85
     21.9686	  222.00	  180.38	 -266.63	  167.30
     22.0020	  179.00	  179.83	 -309.08	  166.76
     22.0354	  208.00	  179.28	 -279.53	  166.22
     22.0689	  177.00	  178.73	 -309.98	  165.68
     22.1023	  171.00	  178.18	 -315.43	  165.14
     22.1357	  179.00	  177.63	 -306.88	  164.60
     22.1691	  208.00	  177.08	 -277.33	  164.06
     22.2026	  214.00	  176.53	 -270.78	  163.51
     22.2360	  184.00	  175.98	 -300.23	  162.97
     22.2694	  175.00	  175.43	 -308.68	  162.43
     22.3028	  184.00	  174.88	 -299.13	  161.89
     22.3362	  181.00	  174.33	 -301.58	  161.35
     22.3697	  184.00	  173.78	 -298.03	  160.81
     22.4031	  183.00	  173.23	 -298.48	  160.27
     22.4365	  163.00	  172.68	 -317.93	  159.72
     22.4699	  178.00	  172.13	 -302.38	  159.18
     22.5034	  183.00	  171.59	 -296.84	  158.64
     22.5368	  185.00	  171.04	 -294.29	  158.10
     22.5702	  194.00	  170.49	 -284.74	  157.56
     22.6036	  174.00	  169.94	 -304.19	  157.02
     22.6371	  162.00	  169.40	 -315.65	  156.47
     22.6705	  149.00	  168.85	 -328.10	  155.93
     22.7039	  180.00	  168.30	 -296.55	  155.39
     22.7373	  179.00	  167.75	 -297.00	  154.85
     22.7707	  179.00	  167.21	 -296.46	  154.31
     22.8042	  177.00	  166.66	 -297.91	  153.77
     22.8376	  157.00	  166.11	 -317.36	  153.23
     22.8710	  178.00	  165.57	 -295.82	  152.68
     22.9044	  168.00	  165.02	 -305.27	  152.14
     22.9379	  171.00	  164.47	 -301.72	  151.60
     22.9713	  182.00	  163.93	 -290.18	  151.06
     23.0047	  176.00	  163.38	 -295.63	  150.52
     23.0381	  198.00	  162.83	 -273.08	  149.98
     23.0715	  182.00	  162.29	 -288.54	  149.43
     23.1050	  197.00	  161.74	 -272.99	  148.89
     23.1384	  182.00	  161.20	 -287.45	  148.35
     23.1718	  199.00	  160.65	 -269.90	  147.81
     23.2052	  175.00	  160.11	 -293.36	  147.27
     23.2387	  168.00	  159.56	 -299.81	  146.73
     23.2721	  154.00	  159.01	 -313.26	  146.19
     23.3055	  155.00	  158.47	 -311.72	  145.64
     23.3389	  179.00	  157.92	 -287.17	  145.10
     23.3723	  177.00	  157.38	 -288.63	  144.56
     23.4058	  172.00	  156.83	 -293.08	  144.02
     23.4392	  170.00	  156.29	 -294.54	  143.48
     23.4726	  167.00	  155.74	 -296.99	  142.94
     23.5060	  182.00	  155.20	 -281.45	  142.39
     23.5395	  142.00	  154.66	 -320.91	  141.86
     23.5729	  161.00	  154.26	 -301.51	  141.46
     23.6063	  160.00	  153.85	 -302.10	  141.06
     23.6397	  167.00	  153.44	 -294.69	  140.65
     23.6731	  164.00	  153.04	 -297.29	  140.25
     23.7066	  160.00	  152.63	 -300.88	  139.85
     23.7400	  153.00	  152.23	 -307.48	  139.45
     23.7734	  155.00	  151.82	 -305.07	  139.05
     23.8068	  175.00	  151.42	 -284.67	  138.64
     23.8403	  154.00	  151.01	 -305.26	  138.24
     23.8737	  170.00	  150.61	 -288.86	  137.84
     23.9071	  175.00	  150.20	 -283.45	  137.44
     23.9405	  179.00	  149.80	 -279.05	  137.03
     23.9740	  193.00	  149.39	 -264.64	  136.63
     24.0074	  171.00	  148.99	 -286.24	  136.23
     24.0408	  185.00	  148.58	 -271.83	  135.83
     24.0742	  172.00	  147.96	 -284.21	  135.42
     24.1076	  169.00	  147.56	 -286.81	  135.02
     24.1411	  189.00	  147.16	 -266.41	  134.62
     24.1745	  172.00	  146.76	 -283.01	  134.22
     24.2079	  223.00	  146.36	 -231.61	  133.82
     24.2413	  200.00	  145.95	 -254.20	  133.41
     24.2748	  153.00	  145.55	 -300.80	  133.01
     24.3082	  169.00	  145.15	 -284.40	  132.61
     24.3416	  166.00	  144.75	 -287.00	  132.21
     24.3750	  181.00	  144.34	 -271.59	  131.80
     24.4084	  177.00	  144.57	 -275.82	  131.40
     24.4419	  182.00	  144.18	 -270.43	  131.00
     24.4753	  145.00	  144.09	 -307.34	  130.60
     24.5087	  167.00	  143.70	 -284.95	  130.20
     24.5421	  158.00	  143.31	 -293.56	  129.79
     24.5756	  141.00	  142.92	 -310.17	  129.39
     24.6090	  135.00	  142.53	 -315.78	  128.99
     24.6424	  154.00	  142.14	 -296.39	  128.59
     24.6758	  149.00	  141.75	 -301.00	  128.18
     24.7092	  154.00	  141.36	 -295.61	  127.78
     24.7427	  135.00	  140.97	 -314.22	  127.38
     24.7761	  142.00	  140.58	 -306.83	  126.98
     24.8095	  136.00	  140.19	 -312.44	  126.57
     24.8429	  141.00	  139.81	 -307.06	  126.17
     24.8764	  123.00	  139.42	 -324.67	  125.77
     24.9098	  141.00	  139.03	 -306.28	  125.37
     24.9432	  145.00	  138.64	 -301.89	  124.97
     24.9766	  133.00	  138.25	 -313.50	  124.56
     25.0100	  145.00	  137.87	 -301.12	  124.16
     25.0435	  142.00	  137.48	 -303.73	  123.76
     25.0769	  160.00	  137.09	 -285.34	  123.36
     25.1103	  143.00	  136.71	 -301.96	  122.95
     25.1437	  155.00	  136.32	 -289.57	  122.55
     25.1772	  143.00	  135.93	 -301.18	  122.15
     25.2106	  120.00	  135.55	 -323.80	  121.75
     25.2440	  156.00	  135.16	 -287.41	  121.35
     25.2774	  136.00	  134.78	 -307.03	  120.94
     25.3109	  136.00	  134.39	 -306.64	  120.54
     25.3443	  139.00	  134.01	 -303.26	  120.14
     25.3777	  154.00	  133.63	 -287.88	  119.74
     25.4111	  126.00	  133.24	 -315.49	  119.33
     25.4445	  127.00	  132.86	 -314.11	  118.93
     25.4780	  133.00	  132.48	 -307.73	  118.53
     25.5114	  108.00	  132.13	 -332.38	  118.16
     25.5448	  174.00	  131.98	 -266.23	  117.99
     25.5782	  129.00	  131.84	 -311.09	  117.83
     25.6117	  148.00	  131.69	 -291.94	  117.66
     25.6451	  147.00	  131.55	 -292.80	  117.49
     25.6785	  122.00	  131.40	 -317.65	  117.32
     25.7119	  124.00	  131.26	 -315.51	  117.16
     25.7453	  138.00	  131.11	 -301.36	  116.99
     25.7788	  152.00	  130.97	 -287.22	  116.82
     25.8122	  140.00	  130.83	 -299.08	  116.65
     25.8456	  125.00	  130.68	 -313.93	  116.49
     25.8790	  117.00	  130.54	 -321.79	  116.32
     25.9125	  125.00	  130.40	 -313.65	  116.15
     25.9459	  139.00	  130.26	 -299.51	  115.98
     25.9793	  124.00	  130.12	 -314.37	  115.82
     26.0127	  143.00	  129.98	 -295.23	  115.65
     26.0461	  122.00	  129.84	 -316.09	  115.48
     26.0796	  135.00	  129.71	 -302.96	  115.31
     26.1130	  116.00	  129.57	 -321.82	  115.15
     26.1464	  131.00	  129.43	 -306.68	  114.98
     26.1798	  123.00	  129.30	 -314.55	  114.81
     26.2133	  147.00	  129.16	 -290.41	  114.64
     26.2467	  133.00	  129.03	 -304.28	  114.47
     26.2801	  128.00	  128.90	 -309.15	  114.31
     26.3135	  155.00	  128.76	 -282.01	  114.14
     26.3470	  128.00	  128.63	 -308.88	  113.97
     26.3804	  123.00	  128.50	 -313.75	  113.80
     26.4138	  129.00	  128.37	 -307.62	  113.64
     26.4472	  140.00	  128.25	 -296.50	  113.47
     26.4806	  131.00	  128.12	 -305.37	  113.30
     26.5141	  127.00	  127.99	 -309.24	  113.13
     26.5475	  108.00	  127.87	 -328.12	  112.97
     26.5809	  127.00	  127.74	 -308.99	  112.80
     26.6143	  139.00	  127.62	 -296.87	  112.63
     26.6478	  123.00	  127.50	 -312.75	  112.46
     26.6812	  138.00	  127.38	 -297.63	  112.30
     26.7146	  137.00	  127.26	 -298.51	  112.13
     26.7480	  141.00	  127.15	 -294.40	  111.96
     26.7814	  143.00	  127.03	 -292.28	  111.79
     26.8149	  122.00	  126.92	 -313.17	  111.63
     26.8483	  156.00	  126.80	 -279.05	  111.46
     26.8817	  121.00	  126.69	 -313.94	  111.29
     26.9151	  120.00	  126.59	 -314.84	  111.12
     26.9486	  136.00	  126.48	 -298.73	  110.95
     26.9820	  163.00	  126.37	 -271.62	  110.79
     27.0154	  136.00	  126.27	 -298.52	  110.62
     27.0488	  116.00	  126.17	 -318.42	  110.45
     27.0822	  132.00	  126.07	 -302.32	  110.28
     27.1157	  126.00	  125.97	 -308.22	  110.12
     27.1491	  118.00	  125.88	 -316.13	  109.95
     27.1825	  113.00	  125.79	 -321.04	  109.78
     27.2159	  124.00	  125.70	 -309.95	  109.61
     27.2494	  124.00	  125.61	 -309.86	  109.45
     27.2828	  135.00	  125.53	 -298.78	  109.28
     27.3162	  124.00	  125.45	 -309.70	  109.11
     27.3496	  135.00	  125.37	 -298.62	  108.94
     27.3830	  102.00	  125.30	 -331.55	  108.78
     27.4165	  148.00	  125.38	 -285.63	  108.76
     27.4499	  132.00	  125.57	 -301.82	  108.85
     27.4833	  124.00	  125.77	 -310.02	  108.95
     27.5167	  113.00	  125.97	 -321.22	  109.04
     27.5502	  126.00	  126.17	 -308.42	  109.13
     27.5836	  112.00	  126.38	 -322.63	  109.22
     27.6170	  123.00	  126.59	 -311.84	  109.31
     27.6504	  117.00	  126.81	 -318.06	  109.40
     27.6839	  132.00	  127.03	 -303.28	  109.49
     27.7173	  123.00	  127.25	 -312.50	  109.59
     27.7507	  117.00	  127.49	 -318.74	  109.68
     27.7841	  141.00	  127.73	 -294.98	  109.77
     27.8175	  163.00	  127.97	 -273.22	  109.86
     27.8510	  139.00	  128.22	 -297.47	  109.95
     27.8844	  148.00	  128.48	 -288.73	  110.04
     27.9178	  143.00	  128.75	 -294.00	  110.13
     27.9512	  128.00	  129.02	 -309.27	  110.23
     27.9847	  165.00	  129.30	 -272.55	  110.32
     28.0181	  127.00	  129.59	 -310.84	  110.41
     28.0515	  128.00	  129.89	 -310.14	  110.50
     28.0849	  125.00	  130.20	 -313.45	  110.59
     28.1183	  129.00	  130.52	 -309.77	  110.68
     28.1518	  139.00	  130.85	 -300.10	  110.77
     28.1852	  145.00	  131.19	 -294.44	  110.87
     28.2186	  134.00	  131.55	 -305.80	  110.96
     28.2520	  154.00	  131.92	 -286.17	  111.05
     28.2855	  143.00	  132.30	 -297.55	  111.14
     28.3189	  141.00	  132.70	 -299.95	  111.23
     28.3523	  162.00	  133.12	 -279.37	  111.32
     28.3857	  148.00	  133.55	 -293.80	  111.41
