 Fe3O4   Chi2:  1.5468  CELL:    8.39762   8.39762   8.39762   90.0000   90.0000   90.0000   SPGR: 227:1                  TEMP:      0.00
  1   3142     1.54060     1.54439     0.00000    -0.02367     0.00000    0
    90     0     1
       0.00000      15.00000
 2Theta	Yobs	Ycal	Yobs-Ycal	Backg	Posr	(hkl)	K
     15.0031	  121.00	  136.63	 -368.88	  133.94
     15.0365	  158.00	  136.63	 -331.88	  133.94
     15.0700	  129.00	  136.64	 -360.89	  133.94
     15.1034	  157.00	  136.83	 -333.08	  134.13
     15.1368	  133.00	  136.33	 -356.58	  133.63
     15.1702	  156.00	  135.83	 -333.08	  133.12
     15.2036	  165.00	  135.33	 -323.58	  132.62
     15.2371	  145.00	  134.82	 -343.07	  132.12
     15.2705	  125.00	  134.32	 -362.57	  131.61
     15.3039	  171.00	  133.82	 -316.07	  131.11
     15.3373	  130.00	  133.32	 -356.57	  130.60
     15.3708	  129.00	  132.82	 -357.07	  130.10
     15.4042	  152.00	  132.32	 -333.57	  129.60
     15.4376	  151.00	  131.82	 -334.07	  129.09
     15.4710	  155.00	  131.32	 -329.57	  128.59
     15.5044	  130.00	  130.82	 -354.07	  128.08
     15.5379	  137.00	  130.32	 -346.57	  127.58
     15.5713	  140.00	  129.81	 -343.06	  127.08
     15.6047	  115.00	  129.31	 -367.56	  126.57
     15.6381	  143.00	  128.81	 -339.06	  126.07
     15.6716	  157.00	  128.31	 -324.56	  125.56
     15.7050	  149.00	  127.81	 -332.06	  125.06
     15.7384	  141.00	  127.31	 -339.56	  124.56
     15.7718	  136.00	  126.81	 -344.06	  124.05
     15.8053	  130.00	  126.32	 -349.57	  123.55
     15.8387	  139.00	  125.82	 -340.07	  123.04
     15.8721	  144.00	  125.32	 -334.57	  122.54
     15.9055	  144.00	  124.82	 -334.07	  122.04
     15.9389	  130.00	  124.32	 -347.57	  121.53
     15.9724	  128.00	  123.82	 -349.07	  121.03
     16.0058	  124.00	  123.32	 -352.57	  120.52
     16.0392	  119.00	  122.83	 -357.08	  120.02
     16.0726	  108.00	  122.33	 -367.58	  119.52
     16.1061	  137.00	  121.83	 -338.08	  119.01
     16.1395	  131.00	  121.33	 -343.58	  118.51
     16.1729	  118.00	  120.84	 -356.09	  118.00
     16.2063	  141.00	  120.34	 -332.59	  117.50
     16.2397	  129.00	  119.84	 -344.09	  117.00
     16.2732	  126.00	  119.35	 -346.60	  116.49
     16.3066	  118.00	  118.85	 -354.10	  115.99
     16.3400	  108.00	  118.36	 -363.61	  115.48
     16.3734	  115.00	  117.86	 -356.11	  114.98
     16.4069	  142.00	  117.37	 -328.62	  114.48
     16.4403	  132.00	  116.88	 -338.13	  113.97
     16.4737	  122.00	  116.39	 -347.64	  113.47
     16.5071	   94.00	  115.89	 -375.14	  112.96
     16.5405	  129.00	  115.40	 -339.65	  112.46
     16.5740	  140.00	  114.91	 -328.16	  111.96
     16.6074	  143.00	  114.42	 -324.67	  111.45
     16.6408	  121.00	  113.94	 -346.18	  110.95
     16.6742	  132.00	  113.45	 -334.70	  110.44
     16.7077	  124.00	  112.96	 -342.21	  109.94
     16.7411	  116.00	  112.51	 -349.76	  109.47
     16.7745	  103.00	  112.14	 -362.39	  109.08
     16.8079	  106.00	  111.77	 -359.02	  108.69
     16.8414	  114.00	  111.40	 -350.65	  108.30
     16.8748	  127.00	  111.04	 -337.29	  107.91
     16.9082	  126.00	  110.68	 -337.93	  107.52
     16.9416	  100.00	  110.31	 -363.56	  107.13
     16.9750	  116.00	  109.96	 -347.21	  106.74
     17.0085	  139.00	  109.60	 -323.85	  106.35
     17.0419	  121.00	  109.25	 -341.50	  105.96
     17.0753	  103.00	  108.89	 -359.14	  105.57
     17.1087	  105.00	  108.55	 -356.80	  105.19
     17.1422	  121.00	  108.20	 -340.45	  104.80
     17.1756	  112.00	  107.86	 -349.11	  104.41
     17.2090	  115.00	  107.53	 -345.78	  104.02
     17.2424	  122.00	  107.20	 -338.45	  103.63
     17.2758	  119.00	  106.87	 -341.12	  103.24
     17.3093	  110.00	  106.56	 -349.81	  102.85
     17.3427	  110.00	  106.25	 -349.50	  102.46
     17.3761	  111.00	  105.95	 -348.20	  102.07
     17.4095	  103.00	  105.66	 -355.91	  101.68
     17.4430	   87.00	  105.38	 -371.63	  101.29
     17.4764	  119.00	  105.12	 -339.37	  100.90
     17.5098	  141.00	  104.87	 -317.12	  100.51
     17.5432	  119.00	  104.64	 -338.89	  100.12
     17.5766	  111.00	  104.44	 -346.69	   99.73
     17.6101	   95.00	  104.26	 -362.51	   99.34
     17.6435	  119.00	  104.11	 -338.36	   98.95
     17.6769	  116.00	  104.01	 -341.26	   98.56
     17.7103	  105.00	  103.96	 -352.21	   98.18
     17.7438	  109.00	  103.97	 -348.22	   97.79
     17.7772	  108.00	  104.06	 -349.31	   97.40
     17.8106	  125.00	  104.25	 -332.50	   97.01
     17.8440	  103.00	  104.57	 -354.82	   96.62
     17.8774	   92.00	  105.06	 -366.31	   96.23
     17.9109	  100.00	  105.80	 -359.05	   95.84
     17.9443	  103.00	  106.87	 -357.12	   95.45
     17.9777	  122.00	  108.45	 -339.70	   95.06
     18.0111	   97.00	  110.88	 -367.13	   94.67
     18.0446	  116.00	  114.73	 -351.98	   94.28
     18.0780	  109.00	  120.90	 -365.15	   93.89
     18.1114	  125.00	  130.66	 -358.91	   93.50
     18.1448	  131.00	  145.34	 -367.59	   93.11
     18.1783	  158.00	  165.62	 -360.87	   92.72
     18.2117	  158.00	  189.79	 -385.04	   92.33
     18.2451	  149.00	  210.71	 -414.96	   91.94
     18.2785	  192.00	  217.34	 -378.59	   91.56
     18.3119	  198.00	  205.76	 -361.01	   91.17
     18.3454	  179.00	  183.00	 -357.25	   90.78
     18.3788	  167.00	  158.87	 -345.12	   90.39
     18.4122	  129.00	  139.02	 -363.27	   90.00
     18.4456	  113.00	  124.62	 -364.87	   89.61
     18.4791	  106.00	  114.86	 -362.11	   89.22
     18.5125	  106.00	  108.41	 -355.66	   88.83
     18.5459	  108.00	  104.08	 -349.33	   88.44
     18.5793	  109.00	  101.05	 -345.30	   88.05
     18.6127	  100.00	   98.79	 -352.04	   87.66
     18.6462	  105.00	   97.00	 -345.25	   87.27
     18.6796	   91.00	   95.54	 -357.79	   86.88
     18.7130	  100.00	   94.30	 -347.55	   86.49
     18.7464	   89.00	   93.23	 -357.48	   86.10
     18.7799	   92.00	   92.33	 -353.58	   85.76
     18.8133	   91.00	   91.60	 -353.85	   85.50
     18.8467	   94.00	   90.95	 -350.20	   85.23
     18.8801	  105.00	   90.36	 -338.61	   84.97
     18.9135	  100.00	   89.82	 -343.07	   84.71
     18.9470	   96.00	   89.32	 -346.57	   84.45
     18.9804	  103.00	   88.85	 -339.10	   84.18
     19.0138	   83.00	   88.41	 -358.66	   83.92
     19.0472	   85.00	   87.99	 -356.24	   83.66
     19.0807	   81.00	   87.59	 -359.84	   83.40
     19.1141	   86.00	   87.20	 -354.45	   83.14
     19.1475	  106.00	   86.83	 -334.08	   82.87
     19.1809	   92.00	   86.47	 -347.72	   82.61
     19.2144	   83.00	   86.12	 -356.37	   82.35
     19.2478	   77.00	   85.78	 -362.03	   82.09
     19.2812	   72.00	   85.45	 -366.70	   81.82
     19.3146	   77.00	   85.12	 -361.37	   81.56
     19.3480	   90.00	   84.80	 -348.05	   81.30
     19.3815	   81.00	   84.48	 -356.73	   81.04
     19.4149	   91.00	   84.17	 -346.42	   80.78
     19.4483	  103.00	   83.87	 -334.12	   80.51
     19.4817	   76.00	   83.56	 -360.81	   80.25
     19.5152	   82.00	   83.26	 -354.51	   79.99
     19.5486	   87.00	   82.97	 -349.22	   79.73
     19.5820	   86.00	   82.67	 -349.92	   79.46
     19.6154	   89.00	   82.38	 -346.63	   79.20
     19.6488	   83.00	   82.09	 -352.34	   78.94
     19.6823	   70.00	   81.80	 -365.05	   78.68
     19.7157	   74.00	   81.51	 -360.76	   78.42
     19.7491	   70.00	   81.23	 -364.48	   78.15
     19.7825	   74.00	   80.95	 -360.20	   77.89
     19.8160	   94.00	   80.66	 -339.91	   77.63
     19.8494	   75.00	   80.38	 -358.63	   77.37
     19.8828	   96.00	   80.10	 -337.35	   77.10
     19.9162	   97.00	   79.83	 -336.08	   76.84
     19.9496	   97.00	   79.55	 -335.80	   76.58
     19.9831	   83.00	   79.27	 -349.52	   76.32
     20.0165	   84.00	   79.00	 -348.25	   76.05
     20.0499	   78.00	   78.72	 -353.97	   75.79
     20.0833	   79.00	   78.45	 -352.70	   75.53
     20.1168	   77.00	   78.17	 -354.42	   75.27
     20.1502	   70.00	   77.90	 -361.15	   75.01
     20.1836	   76.00	   77.63	 -354.88	   74.74
     20.2170	   76.00	   77.35	 -354.60	   74.48
     20.2505	   92.00	   77.08	 -338.33	   74.22
     20.2839	   81.00	   76.81	 -349.06	   73.96
     20.3173	   65.00	   76.54	 -364.79	   73.69
     20.3507	   87.00	   76.27	 -342.52	   73.43
     20.3841	   88.00	   76.00	 -341.25	   73.17
     20.4176	   72.00	   75.73	 -356.98	   72.91
     20.4510	   70.00	   75.46	 -358.71	   72.65
     20.4844	   95.00	   75.19	 -333.44	   72.38
     20.5178	   78.00	   74.93	 -350.18	   72.12
     20.5513	   70.00	   74.66	 -357.91	   71.86
     20.5847	   78.00	   74.39	 -349.64	   71.60
     20.6181	   75.00	   74.12	 -352.37	   71.33
     20.6515	   90.00	   73.85	 -337.10	   71.07
     20.6849	   79.00	   73.59	 -347.84	   70.81
     20.7184	   74.00	   73.32	 -352.57	   70.55
     20.7518	   82.00	   73.05	 -344.30	   70.29
     20.7852	   66.00	   72.79	 -360.04	   70.02
     20.8186	   74.00	   72.52	 -351.77	   69.76
     20.8521	   68.00	   72.25	 -357.50	   69.50
     20.8855	   76.00	   71.99	 -349.24	   69.24
     20.9189	   81.00	   71.72	 -343.97	   68.97
     20.9523	   52.00	   71.45	 -372.70	   68.71
     20.9857	   59.00	   71.19	 -365.44	   68.45
     21.0192	   79.00	   70.92	 -345.17	   68.19
     21.0526	   91.00	   70.66	 -332.91	   67.93
     21.0860	   72.00	   70.39	 -351.64	   67.66
     21.1194	   81.00	   70.13	 -342.38	   67.40
     21.1529	   74.00	   69.86	 -349.11	   67.14
     21.1863	   66.00	   69.67	 -356.92	   66.95
     21.2197	   69.00	   69.49	 -353.74	   66.78
     21.2531	   77.00	   69.31	 -345.56	   66.60
     21.2865	   68.00	   69.13	 -354.38	   66.42
     21.3200	   84.00	   68.95	 -338.20	   66.25
     21.3534	   74.00	   68.78	 -348.02	   66.07
     21.3868	   66.00	   68.60	 -355.85	   65.89
     21.4202	   63.00	   68.42	 -358.67	   65.71
     21.4537	   61.00	   68.24	 -360.49	   65.54
     21.4871	   84.00	   68.06	 -337.31	   65.36
     21.5205	   64.00	   67.88	 -357.13	   65.18
     21.5539	   81.00	   67.70	 -339.95	   65.01
     21.5874	   78.00	   67.52	 -342.77	   64.83
     21.6208	   66.00	   67.34	 -354.59	   64.65
     21.6542	   77.00	   67.07	 -343.32	   64.47
     21.6876	   74.00	   66.89	 -346.14	   64.30
     21.7210	   81.00	   66.72	 -338.97	   64.12
     21.7545	   81.00	   66.54	 -338.79	   63.94
     21.7879	   74.00	   66.36	 -345.61	   63.77
     21.8213	   78.00	   66.19	 -341.44	   63.59
     21.8547	   65.00	   66.01	 -354.26	   63.41
     21.8882	   59.00	   65.83	 -360.08	   63.24
     21.9216	   82.00	   65.65	 -336.90	   63.06
     21.9550	   69.00	   65.48	 -349.73	   62.88
     21.9884	   75.00	   65.30	 -343.55	   62.70
     22.0218	   58.00	   65.12	 -360.37	   62.53
     22.0553	   73.00	   64.95	 -345.20	   62.35
     22.0887	   58.00	   64.77	 -360.02	   62.17
     22.1221	   74.00	   64.59	 -343.84	   62.00
     22.1555	   72.00	   64.41	 -345.66	   61.82
     22.1890	   72.00	   64.24	 -345.49	   61.64
     22.2224	   76.00	   64.06	 -341.31	   61.46
     22.2558	   75.00	   63.88	 -342.13	   61.29
     22.2892	   59.00	   63.71	 -357.96	   61.11
     22.3226	   61.00	   63.53	 -355.78	   60.93
     22.3561	   59.00	   63.35	 -357.60	   60.76
     22.3895	   58.00	   63.18	 -358.43	   60.58
     22.4229	   63.00	   63.00	 -353.25	   60.40
     22.4563	   74.00	   62.82	 -342.07	   60.23
     22.4898	   65.00	   62.64	 -350.89	   60.05
     22.5232	   60.00	   62.47	 -355.72	   59.87
     22.5566	   52.00	   62.29	 -363.54	   59.69
     22.5900	   71.00	   62.11	 -344.36	   59.52
     22.6234	   52.00	   61.94	 -363.19	   59.34
     22.6569	   65.00	   61.76	 -350.01	   59.16
     22.6903	   75.00	   61.58	 -339.83	   58.99
     22.7237	   38.00	   61.40	 -376.65	   58.81
     22.7571	   65.00	   61.23	 -349.48	   58.63
     22.7906	   55.00	   61.05	 -359.30	   58.45
     22.8240	   58.00	   60.87	 -356.12	   58.28
     22.8574	   57.00	   60.70	 -356.95	   58.10
     22.8908	   68.00	   60.52	 -345.77	   57.92
     22.9243	   60.00	   60.34	 -353.59	   57.75
     22.9577	   63.00	   60.17	 -350.42	   57.57
     22.9911	   66.00	   59.99	 -347.24	   57.39
     23.0245	   52.00	   59.81	 -361.06	   57.22
     23.0579	   57.00	   59.63	 -355.88	   57.04
     23.0914	   62.00	   59.46	 -350.71	   56.86
     23.1248	   65.00	   59.28	 -347.53	   56.68
     23.1582	   65.00	   59.10	 -347.35	   56.51
     23.1916	   65.00	   58.93	 -347.18	   56.33
     23.2251	   59.00	   58.75	 -353.00	   56.15
     23.2585	   61.00	   58.57	 -350.82	   55.98
     23.2919	   70.00	   58.39	 -341.64	   55.80
     23.3253	   57.00	   58.22	 -354.47	   55.62
     23.3587	   52.00	   58.04	 -359.29	   55.44
     23.3922	   69.00	   57.86	 -342.11	   55.27
     23.4256	   55.00	   57.69	 -355.94	   55.09
     23.4590	   62.00	   57.51	 -348.76	   54.91
     23.4924	   64.00	   57.33	 -346.58	   54.74
     23.5259	   68.00	   57.16	 -342.41	   54.56
     23.5593	   61.00	   56.98	 -349.23	   54.38
     23.5927	   52.00	   56.80	 -358.05	   54.21
     23.6261	   74.00	   56.62	 -335.87	   54.03
     23.6595	   64.00	   56.45	 -345.70	   53.85
     23.6930	   47.00	   56.27	 -362.52	   53.67
     23.7264	   64.00	   56.09	 -345.34	   53.50
     23.7598	   48.00	   55.92	 -361.17	   53.32
     23.7932	   63.00	   55.74	 -345.99	   53.14
     23.8267	   72.00	   55.56	 -336.81	   52.97
     23.8601	   65.00	   55.38	 -343.63	   52.79
     23.8935	   50.00	   55.21	 -358.46	   52.61
     23.9269	   62.00	   55.03	 -346.28	   52.43
     23.9604	   65.00	   54.85	 -343.10	   52.26
     23.9938	   48.00	   54.68	 -359.93	   52.08
     24.0272	   59.00	   54.50	 -348.75	   51.90
     24.0606	   72.00	   54.32	 -335.57	   51.73
     24.0940	   72.00	   54.15	 -335.40	   51.55
     24.1275	   59.00	   53.97	 -348.22	   51.37
     24.1609	   47.00	   53.79	 -360.04	   51.20
     24.1943	   55.00	   53.61	 -351.86	   51.02
     24.2277	   57.00	   53.44	 -349.69	   50.84
     24.2612	   52.00	   53.26	 -354.51	   50.66
     24.2946	   58.00	   53.08	 -348.33	   50.49
     24.3280	   64.00	   52.91	 -342.16	   50.31
     24.3614	   37.00	   52.73	 -368.98	   50.13
     24.3948	   69.00	   52.55	 -336.80	   49.96
     24.4283	   45.00	   52.37	 -360.62	   49.78
     24.4617	   44.00	   52.21	 -361.46	   49.62
     24.4951	   78.00	   52.14	 -327.39	   49.54
     24.5285	   49.00	   52.06	 -356.31	   49.47
     24.5620	   56.00	   51.99	 -349.24	   49.39
     24.5954	   47.00	   51.92	 -358.17	   49.32
     24.6288	   55.00	   51.84	 -350.09	   49.25
     24.6622	   58.00	   51.77	 -347.02	   49.17
     24.6956	   57.00	   51.69	 -347.94	   49.10
     24.7291	   63.00	   51.62	 -341.87	   49.02
     24.7625	   59.00	   51.54	 -345.79	   48.95
     24.7959	   56.00	   51.47	 -348.72	   48.87
     24.8293	   51.00	   51.40	 -353.65	   48.80
     24.8628	   44.00	   51.32	 -360.57	   48.73
     24.8962	   36.00	   51.25	 -368.50	   48.65
     24.9296	   41.00	   51.17	 -363.42	   48.58
     24.9630	   58.00	   51.10	 -346.35	   48.50
     24.9964	   49.00	   51.02	 -355.27	   48.43
     25.0299	   46.00	   50.95	 -358.20	   48.35
     25.0633	   49.00	   50.88	 -355.13	   48.28
     25.0967	   50.00	   50.80	 -354.05	   48.21
     25.1301	   59.00	   50.73	 -344.98	   48.13
     25.1636	   57.00	   50.65	 -346.90	   48.06
     25.1970	   48.00	   50.58	 -355.83	   47.98
     25.2304	   48.00	   50.50	 -355.75	   47.91
     25.2638	   44.00	   50.43	 -359.68	   47.83
     25.2973	   56.00	   50.36	 -347.61	   47.76
     25.3307	   48.00	   50.28	 -355.53	   47.69
     25.3641	   50.00	   50.21	 -353.46	   47.61
     25.3975	   51.00	   50.13	 -352.38	   47.54
     25.4309	   39.00	   50.06	 -364.31	   47.46
     25.4644	   56.00	   49.98	 -347.23	   47.39
     25.4978	   60.00	   49.91	 -343.16	   47.31
     25.5312	   57.00	   49.84	 -346.09	   47.24
     25.5646	   66.00	   49.76	 -337.01	   47.17
     25.5981	   37.00	   49.69	 -365.94	   47.09
     25.6315	   48.00	   49.61	 -354.86	   47.02
     25.6649	   50.00	   49.54	 -352.79	   46.94
     25.6983	   48.00	   49.46	 -354.71	   46.87
     25.7317	   52.00	   49.39	 -350.64	   46.79
     25.7652	   57.00	   49.32	 -345.57	   46.72
     25.7986	   43.00	   49.24	 -359.49	   46.65
     25.8320	   51.00	   49.17	 -351.42	   46.57
     25.8654	   60.00	   49.09	 -342.34	   46.50
     25.8989	   48.00	   49.02	 -354.27	   46.42
     25.9323	   56.00	   48.94	 -346.19	   46.35
     25.9657	   57.00	   48.87	 -345.12	   46.27
     25.9991	   51.00	   48.80	 -351.05	   46.20
     26.0325	   51.00	   48.72	 -350.97	   46.13
     26.0660	   50.00	   48.65	 -351.90	   46.05
     26.0994	   51.00	   48.57	 -350.82	   45.98
     26.1328	   52.00	   48.50	 -349.75	   45.90
     26.1662	   34.00	   48.42	 -367.67	   45.83
     26.1997	   65.00	   48.35	 -336.60	   45.75
     26.2331	   46.00	   48.28	 -355.53	   45.68
     26.2665	   42.00	   48.20	 -359.45	   45.61
     26.2999	   47.00	   48.13	 -354.38	   45.53
     26.3334	   55.00	   48.05	 -346.30	   45.46
     26.3668	   44.00	   47.98	 -357.23	   45.38
     26.4002	   50.00	   47.90	 -351.15	   45.31
     26.4336	   46.00	   47.83	 -355.08	   45.23
     26.4670	   46.00	   47.76	 -355.01	   45.16
     26.5005	   51.00	   47.68	 -349.93	   45.09
     26.5339	   42.00	   47.61	 -358.86	   45.01
     26.5673	   48.00	   47.53	 -352.78	   44.94
     26.6007	   28.00	   47.46	 -372.71	   44.86
     26.6342	   38.00	   47.38	 -362.63	   44.79
     26.6676	   46.00	   47.31	 -354.56	   44.71
     26.7010	   51.00	   47.59	 -349.84	   44.64
     26.7344	   44.00	   47.52	 -356.77	   44.56
     26.7678	   61.00	   47.45	 -339.70	   44.49
     26.8013	   58.00	   47.56	 -342.81	   44.42
     26.8347	   37.00	   47.50	 -363.75	   44.34
     26.8681	   52.00	   47.44	 -348.69	   44.27
     26.9015	   57.00	   47.38	 -343.63	   44.19
     26.9350	   46.00	   47.32	 -354.57	   44.12
     26.9684	   47.00	   47.25	 -353.50	   44.04
     27.0018	   50.00	   47.19	 -350.44	   43.97
     27.0352	   48.00	   47.13	 -352.38	   43.90
     27.0686	   52.00	   47.07	 -348.32	   43.82
     27.1021	   43.00	   47.01	 -357.26	   43.75
     27.1355	   43.00	   46.95	 -357.20	   43.67
     27.1689	   42.00	   46.90	 -358.15	   43.60
     27.2023	   41.00	   46.84	 -359.09	   43.52
     27.2358	   46.00	   46.78	 -354.03	   43.45
     27.2692	   60.00	   46.72	 -339.97	   43.38
     27.3026	   37.00	   46.67	 -362.92	   43.30
     27.3360	   41.00	   46.61	 -358.86	   43.23
     27.3694	   47.00	   46.56	 -352.81	   43.15
     27.4029	   47.00	   46.50	 -352.75	   43.08
     27.4363	   51.00	   46.45	 -348.70	   43.00
     27.4697	   44.00	   46.40	 -355.65	   42.93
     27.5031	   54.00	   46.35	 -345.60	   42.86
     27.5366	   54.00	   46.30	 -345.55	   42.78
     27.5700	   38.00	   46.23	 -361.48	   42.69
     27.6034	   38.00	   46.17	 -361.42	   42.60
     27.6368	   56.00	   46.10	 -343.35	   42.51
     27.6703	   44.00	   46.03	 -355.28	   42.42
     27.7037	   56.00	   45.97	 -343.22	   42.32
     27.7371	   43.00	   45.91	 -356.16	   42.23
     27.7705	   34.00	   45.85	 -365.10	   42.14
     27.8039	   33.00	   45.79	 -366.04	   42.04
     27.8374	   43.00	   45.73	 -355.98	   41.95
     27.8708	   48.00	   45.67	 -350.92	   41.86
     27.9042	   46.00	   45.61	 -352.86	   41.77
     27.9376	   70.00	   45.56	 -328.81	   41.67
     27.9711	   29.00	   45.51	 -369.76	   41.58
     28.0045	   49.00	   45.46	 -349.71	   41.49
     28.0379	   59.00	   45.41	 -339.66	   41.39
     28.0713	   36.00	   45.37	 -362.62	   41.30
     28.1047	   45.00	   45.32	 -353.57	   41.21
     28.1382	   44.00	   45.28	 -354.53	   41.12
     28.1716	   35.00	   45.25	 -363.50	   41.02
     28.2050	   56.00	   45.21	 -342.46	   40.93
     28.2384	   36.00	   45.18	 -362.43	   40.84
     28.2719	   37.00	   45.15	 -361.40	   40.74
     28.3053	   44.00	   45.13	 -354.38	   40.65
     28.3387	   45.00	   45.11	 -353.36	   40.56
     28.3721	   47.00	   45.09	 -351.34	   40.47
