 Fe3O4   Chi2:  1.8564  CELL:    8.36097   8.36097   8.36097   90.0000   90.0000   90.0000   SPGR: 227:1                  TEMP:      0.00
  1   1695     1.54060     1.54439     0.00000    -0.04264     0.00000    0
    70     0     1
       0.00000      15.00000
 2Theta	Yobs	Ycal	Yobs-Ycal	Backg	Posr	(hkl)	K
     15.0316	  581.00	  568.05	 -340.55	  549.99
     15.0817	  562.00	  569.18	 -360.68	  551.10
     15.1318	  597.00	  563.79	 -320.29	  545.67
     15.1820	  590.00	  558.39	 -321.89	  540.24
     15.2321	  608.00	  553.00	 -298.50	  534.81
     15.2822	  573.00	  547.60	 -328.10	  529.38
     15.3324	  606.00	  542.21	 -289.71	  523.95
     15.3825	  591.00	  536.82	 -299.32	  518.52
     15.4326	  539.00	  531.44	 -345.94	  513.09
     15.4828	  517.00	  526.05	 -362.55	  507.66
     15.5329	  574.00	  520.67	 -300.17	  502.24
     15.5830	  573.00	  516.47	 -296.97	  497.99
     15.6332	  564.00	  514.11	 -303.61	  495.57
     15.6833	  539.00	  511.75	 -326.25	  493.16
     15.7334	  526.00	  509.39	 -336.89	  490.75
     15.7836	  574.00	  507.04	 -286.54	  488.34
     15.8337	  496.00	  504.69	 -362.19	  485.92
     15.8838	  562.00	  502.35	 -293.85	  483.51
     15.9340	  533.00	  500.01	 -320.51	  481.10
     15.9841	  512.00	  497.67	 -339.17	  478.68
     16.0342	  557.00	  495.34	 -291.84	  476.27
     16.0844	  497.00	  493.01	 -349.51	  473.86
     16.1345	  511.00	  490.69	 -333.19	  471.45
     16.1846	  503.00	  488.38	 -338.88	  469.03
     16.2348	  529.00	  486.07	 -310.57	  466.62
     16.2849	  464.00	  483.77	 -373.27	  464.21
     16.3350	  521.00	  481.48	 -313.98	  461.79
     16.3852	  518.00	  479.19	 -314.69	  459.38
     16.4353	  485.00	  476.92	 -345.42	  456.97
     16.4854	  513.00	  474.65	 -315.15	  454.56
     16.5356	  490.00	  472.40	 -335.90	  452.14
     16.5857	  474.00	  470.16	 -349.66	  449.73
     16.6358	  472.00	  468.11	 -349.61	  447.49
     16.6860	  518.00	  466.65	 -302.15	  445.82
     16.7361	  509.00	  465.20	 -309.70	  444.15
     16.7862	  493.00	  463.77	 -324.27	  442.48
     16.8364	  490.00	  462.36	 -325.86	  440.81
     16.8865	  510.00	  460.98	 -304.48	  439.14
     16.9367	  536.00	  459.63	 -277.13	  437.47
     16.9868	  508.00	  458.31	 -303.81	  435.80
     17.0369	  511.00	  457.02	 -299.52	  434.13
     17.0871	  476.00	  455.77	 -333.27	  432.46
     17.1372	  483.00	  454.58	 -325.08	  430.79
     17.1873	  496.00	  453.43	 -310.93	  429.11
     17.2375	  522.00	  452.35	 -283.85	  427.44
     17.2876	  453.00	  451.33	 -351.83	  425.77
     17.3377	  467.00	  450.40	 -336.90	  424.10
     17.3879	  475.00	  449.56	 -328.06	  422.43
     17.4380	  471.00	  448.83	 -331.33	  420.76
     17.4881	  462.00	  448.23	 -339.73	  419.09
     17.5383	  435.00	  447.77	 -366.27	  417.42
     17.5884	  409.00	  447.49	 -391.99	  415.75
     17.6385	  418.00	  447.40	 -382.90	  414.08
     17.6887	  469.00	  447.54	 -332.04	  412.41
     17.7388	  419.00	  447.94	 -382.44	  410.74
     17.7889	  457.00	  448.64	 -345.14	  409.07
     17.8391	  486.00	  449.67	 -317.17	  407.40
     17.8892	  426.00	  451.05	 -378.55	  405.73
     17.9393	  439.00	  452.80	 -367.30	  404.06
     17.9895	  453.00	  454.90	 -355.40	  402.39
     18.0396	  470.00	  457.28	 -340.78	  400.72
     18.0897	  449.00	  459.83	 -364.33	  399.05
     18.1399	  478.00	  462.32	 -337.82	  397.38
     18.1900	  441.00	  464.45	 -376.95	  395.71
     18.2401	  452.00	  465.86	 -367.36	  394.04
     18.2903	  470.00	  466.17	 -349.67	  392.35
     18.3404	  477.00	  465.07	 -341.57	  390.61
     18.3905	  441.00	  462.53	 -375.03	  388.88
     18.4407	  455.00	  458.65	 -357.15	  387.14
     18.4908	  447.00	  453.73	 -360.23	  385.41
     18.5409	  437.00	  448.13	 -364.63	  383.67
     18.5911	  449.00	  442.22	 -346.72	  381.94
     18.6412	  417.00	  436.28	 -372.78	  380.20
     18.6913	  449.00	  430.52	 -335.02	  378.47
     18.7415	  387.00	  425.06	 -391.56	  376.73
     18.7916	  430.00	  419.95	 -343.45	  375.00
     18.8417	  408.00	  415.20	 -360.70	  373.26
     18.8919	  426.00	  410.81	 -338.31	  371.53
     18.9420	  413.00	  406.74	 -347.24	  369.79
     18.9921	  422.00	  402.97	 -334.47	  368.06
     19.0423	  408.00	  399.45	 -344.95	  366.32
     19.0924	  389.00	  396.15	 -360.65	  364.59
     19.1425	  405.00	  393.05	 -341.55	  362.86
     19.1927	  372.00	  390.12	 -371.62	  361.12
     19.2428	  393.00	  387.34	 -347.84	  359.39
     19.2929	  387.00	  384.68	 -351.18	  357.65
     19.3431	  398.00	  382.12	 -337.62	  355.92
     19.3932	  399.00	  379.66	 -334.16	  354.18
     19.4433	  390.00	  377.28	 -340.78	  352.45
     19.4935	  384.00	  374.96	 -344.46	  350.71
     19.5436	  389.00	  372.71	 -337.21	  348.98
     19.5937	  369.00	  370.51	 -355.01	  347.24
     19.6439	  378.00	  368.36	 -343.86	  345.51
     19.6940	  356.00	  366.24	 -363.74	  343.77
     19.7441	  355.00	  364.16	 -362.66	  342.04
     19.7943	  390.00	  362.11	 -325.61	  340.30
     19.8444	  378.00	  360.28	 -335.78	  338.75
     19.8945	  359.00	  358.52	 -353.02	  337.26
     19.9447	  332.00	  356.79	 -378.29	  335.77
     19.9948	  418.00	  355.08	 -290.58	  334.28
     20.0449	  378.00	  353.39	 -328.89	  332.79
     20.0951	  359.00	  351.71	 -346.21	  331.30
     20.1452	  359.00	  350.04	 -344.54	  329.80
     20.1953	  349.00	  348.39	 -352.89	  328.31
     20.2455	  333.00	  346.75	 -367.25	  326.82
     20.2956	  375.00	  345.12	 -323.62	  325.33
     20.3457	  347.00	  343.50	 -350.00	  323.84
     20.3959	  341.00	  341.89	 -354.39	  322.35
     20.4460	  347.00	  340.29	 -346.79	  320.86
     20.4962	  359.00	  338.70	 -333.20	  319.36
     20.5463	  325.00	  337.11	 -365.61	  317.87
     20.5964	  363.00	  335.52	 -326.02	  316.38
     20.6466	  352.00	  333.95	 -335.45	  314.89
     20.6967	  325.00	  332.37	 -360.87	  313.40
     20.7468	  355.00	  330.81	 -329.31	  311.91
     20.7970	  348.00	  329.24	 -334.74	  310.42
     20.8471	  361.00	  327.68	 -320.18	  308.92
     20.8972	  340.00	  326.13	 -339.63	  307.43
     20.9474	  322.00	  324.58	 -356.08	  305.94
     20.9975	  302.00	  323.03	 -374.53	  304.45
     21.0476	  341.00	  321.48	 -333.98	  302.96
     21.0978	  319.00	  319.94	 -354.44	  301.47
     21.1479	  352.00	  318.40	 -319.90	  299.97
     21.1980	  306.00	  316.86	 -364.36	  298.48
     21.2482	  334.00	  315.33	 -334.83	  296.99
     21.2983	  342.00	  313.80	 -325.30	  295.50
     21.3484	  367.00	  312.26	 -298.76	  294.01
     21.3986	  331.00	  310.74	 -333.24	  292.52
     21.4487	  331.00	  309.21	 -331.71	  291.03
     21.4988	  340.00	  308.28	 -321.78	  290.13
     21.5490	  303.00	  307.47	 -357.97	  289.35
     21.5991	  341.00	  306.66	 -319.16	  288.57
     21.6492	  354.00	  305.85	 -305.35	  287.79
     21.6994	  357.00	  305.04	 -301.54	  287.01
     21.7495	  317.00	  304.23	 -340.73	  286.23
     21.7996	  322.00	  303.43	 -334.93	  285.45
     21.8498	  301.00	  302.62	 -355.12	  284.67
     21.8999	  318.00	  301.82	 -337.32	  283.89
     21.9500	  313.00	  301.01	 -341.51	  283.11
     22.0002	  291.00	  300.21	 -362.71	  282.34
     22.0503	  312.00	  299.41	 -340.91	  281.56
     22.1004	  306.00	  298.61	 -346.11	  280.78
     22.1506	  330.00	  297.81	 -321.31	  280.00
     22.2007	  350.00	  296.29	 -299.79	  279.22
     22.2508	  323.00	  295.51	 -326.01	  278.44
     22.3010	  322.00	  294.73	 -326.23	  277.66
     22.3511	  307.00	  293.95	 -340.45	  276.88
     22.4012	  310.00	  293.17	 -336.67	  276.10
     22.4514	  312.00	  292.39	 -333.89	  275.32
     22.5015	  301.00	  291.61	 -344.11	  274.54
     22.5516	  280.00	  290.83	 -364.33	  273.76
     22.6018	  303.00	  290.05	 -340.55	  272.98
     22.6519	  301.00	  289.27	 -341.77	  272.20
     22.7020	  294.00	  288.49	 -347.99	  271.42
     22.7522	  315.00	  287.71	 -326.21	  270.64
     22.8023	  295.00	  286.93	 -345.43	  269.86
     22.8524	  289.00	  286.15	 -350.65	  269.08
     22.9026	  280.00	  285.38	 -358.88	  268.30
     22.9527	  317.00	  284.60	 -321.10	  267.52
     23.0028	  269.00	  283.82	 -368.32	  266.74
     23.0530	  270.00	  283.04	 -366.54	  265.96
     23.1031	  283.00	  282.26	 -352.76	  265.19
     23.1532	  276.00	  281.48	 -358.98	  264.41
     23.2034	  285.00	  280.70	 -349.20	  263.63
     23.2535	  311.00	  279.83	 -322.33	  262.76
     23.3036	  303.00	  278.90	 -329.40	  261.83
     23.3538	  264.00	  277.96	 -367.46	  260.89
     23.4039	  280.00	  277.03	 -350.53	  259.96
     23.4540	  295.00	  276.10	 -334.60	  259.02
     23.5042	  281.00	  275.16	 -347.66	  258.09
     23.5543	  298.00	  274.23	 -329.73	  257.16
     23.6044	  294.00	  273.30	 -332.80	  256.22
     23.6546	  270.00	  272.36	 -355.86	  255.29
     23.7047	  254.00	  271.43	 -370.93	  254.36
     23.7548	  272.00	  270.50	 -352.00	  253.42
     23.8050	  275.00	  269.56	 -348.06	  252.49
     23.8551	  272.00	  268.63	 -350.13	  251.56
     23.9053	  278.00	  267.70	 -343.20	  250.62
     23.9554	  313.00	  266.76	 -307.26	  249.69
     24.0055	  267.00	  265.83	 -352.33	  248.76
     24.0557	  279.00	  264.89	 -339.39	  247.82
     24.1058	  284.00	  263.96	 -333.46	  246.89
     24.1559	  326.00	  263.03	 -290.53	  245.96
     24.2061	  294.00	  262.09	 -321.59	  245.02
     24.2562	  312.00	  261.16	 -302.66	  244.09
     24.3063	  243.00	  260.23	 -370.73	  243.16
     24.3565	  296.00	  259.29	 -316.79	  242.22
     24.4066	  256.00	  258.36	 -355.86	  241.29
     24.4567	  291.00	  257.43	 -319.93	  240.36
     24.5069	  292.00	  256.49	 -317.99	  239.42
     24.5570	  275.00	  255.56	 -334.06	  238.49
     24.6071	  281.00	  254.63	 -327.13	  237.55
     24.6573	  234.00	  253.69	 -373.19	  236.62
     24.7074	  261.00	  252.76	 -345.26	  235.69
     24.7575	  275.00	  251.83	 -330.33	  234.75
     24.8077	  284.00	  250.89	 -320.39	  233.82
     24.8578	  279.00	  249.96	 -324.46	  232.89
     24.9079	  268.00	  249.03	 -334.53	  231.95
     24.9581	  249.00	  248.09	 -352.59	  231.02
     25.0082	  238.00	  247.16	 -362.66	  230.09
     25.0583	  263.00	  246.23	 -336.73	  229.15
     25.1085	  267.00	  245.29	 -331.79	  228.22
     25.1586	  256.00	  244.36	 -341.86	  227.29
     25.2087	  246.00	  243.42	 -350.92	  226.35
     25.2589	  271.00	  243.05	 -325.55	  225.98
     25.3090	  249.00	  243.05	 -347.55	  225.98
     25.3591	  280.00	  243.05	 -316.55	  225.98
     25.4093	  267.00	  243.05	 -329.55	  225.98
     25.4594	  264.00	  243.05	 -332.55	  225.98
     25.5095	  272.00	  243.05	 -324.55	  225.98
     25.5597	  241.00	  243.05	 -355.55	  225.98
     25.6098	  253.00	  243.05	 -343.55	  225.98
     25.6599	  242.00	  243.05	 -354.55	  225.98
     25.7101	  273.00	  243.05	 -323.55	  225.98
     25.7602	  277.00	  243.05	 -319.55	  225.98
     25.8103	  268.00	  243.05	 -328.55	  225.98
     25.8605	  233.00	  243.05	 -363.55	  225.98
     25.9106	  255.00	  243.05	 -341.55	  225.98
     25.9607	  253.00	  243.05	 -343.55	  225.98
     26.0109	  226.00	  243.05	 -370.55	  225.98
     26.0610	  247.00	  243.05	 -349.55	  225.98
     26.1111	  269.00	  243.05	 -327.55	  225.98
     26.1613	  293.00	  245.80	 -306.30	  225.98
     26.2114	  267.00	  247.21	 -333.71	  225.98
     26.2615	  277.00	  247.32	 -323.82	  225.98
     26.3117	  273.00	  247.43	 -327.93	  225.98
     26.3618	  266.00	  247.54	 -335.04	  225.98
     26.4119	  273.00	  247.66	 -328.16	  225.98
     26.4621	  255.00	  247.78	 -346.28	  225.98
     26.5122	  280.00	  247.91	 -321.41	  225.98
     26.5623	  285.00	  248.04	 -316.54	  225.98
     26.6125	  261.00	  248.18	 -340.68	  225.98
     26.6626	  316.00	  248.33	 -285.83	  225.98
     26.7127	  304.00	  248.48	 -297.98	  225.98
     26.7629	  324.00	  248.63	 -278.13	  225.98
     26.8130	  329.00	  248.80	 -273.30	  225.98
     26.8631	  333.00	  248.97	 -269.47	  225.98
     26.9133	  325.00	  249.22	 -277.72	  226.06
     26.9634	  283.00	  249.52	 -320.02	  226.17
     27.0135	  266.00	  249.83	 -337.33	  226.29
     27.0637	  318.00	  250.15	 -285.65	  226.40
     27.1138	  283.00	  250.48	 -320.98	  226.52
     27.1639	  308.00	  250.82	 -296.32	  226.63
     27.2141	  252.00	  251.17	 -352.67	  226.74
     27.2642	  269.00	  251.53	 -336.03	  226.86
     27.3144	  269.00	  251.90	 -336.40	  226.97
     27.3645	  254.00	  252.29	 -351.79	  227.09
     27.4146	  260.00	  252.69	 -346.19	  227.20
     27.4648	  277.00	  253.11	 -329.61	  227.31
     27.5149	  298.00	  253.55	 -309.05	  227.43
     27.5650	  272.00	  254.00	 -335.50	  227.54
     27.6152	  271.00	  254.47	 -336.97	  227.65
     27.6653	  265.00	  254.96	 -343.46	  227.77
     27.7154	  232.00	  255.47	 -376.97	  227.88
     27.7656	  282.00	  256.01	 -327.51	  228.00
     27.8157	  263.00	  256.57	 -347.07	  228.11
     27.8658	  237.00	  257.16	 -373.66	  228.22
     27.9160	  237.00	  257.78	 -374.28	  228.34
     27.9661	  251.00	  258.44	 -360.94	  228.45
     28.0162	  248.00	  259.13	 -364.63	  228.57
     28.0664	  260.00	  259.85	 -353.35	  228.68
     28.1165	  241.00	  260.62	 -373.12	  228.79
     28.1666	  296.00	  261.44	 -318.94	  228.91
     28.2168	  236.00	  262.31	 -379.81	  229.02
     28.2669	  273.00	  263.23	 -343.73	  229.14
     28.3170	  262.00	  264.21	 -355.71	  229.25
     28.3672	  252.00	  265.26	 -366.76	  229.36
     28.4173	  243.00	  266.38	 -376.88	  229.48
     28.4674	  235.00	  267.58	 -386.08	  229.59
     28.5176	  262.00	  268.87	 -360.37	  229.70
     28.5677	  263.00	  270.27	 -360.77	  229.82
     28.6178	  272.00	  271.77	 -353.27	  229.93
     28.6680	  252.00	  273.40	 -374.90	  230.05
     28.7181	  291.00	  275.17	 -337.67	  230.16
     28.7682	  267.00	  277.09	 -363.59	  230.27
     28.8184	  250.00	  279.19	 -382.69	  230.39
     28.8685	  263.00	  281.48	 -371.98	  230.50
     28.9186	  262.00	  284.00	 -375.50	  230.62
     28.9688	  295.00	  286.77	 -345.27	  230.73
     29.0189	  276.00	  289.83	 -367.33	  230.84
     29.0690	  301.00	  293.22	 -345.72	  230.96
     29.1192	  303.00	  296.99	 -347.49	  231.07
     29.1693	  286.00	  301.20	 -368.70	  231.19
     29.2194	  283.00	  305.90	 -376.40	  231.30
     29.2696	  294.00	  311.17	 -370.67	  231.41
     29.3197	  308.00	  317.10	 -362.60	  231.53
     29.3698	  258.00	  323.78	 -419.28	  231.64
     29.4200	  300.00	  331.34	 -384.84	  231.75
     29.4701	  343.00	  339.89	 -350.39	  231.87
     29.5202	  296.00	  349.50	 -407.00	  231.91
     29.5704	  333.00	  360.39	 -380.89	  231.95
     29.6205	  367.00	  372.72	 -359.22	  232.00
     29.6706	  362.00	  386.60	 -378.10	  232.04
     29.7208	  372.00	  402.16	 -383.66	  232.08
     29.7709	  368.00	  419.42	 -404.92	  232.12
     29.8210	  406.00	  438.28	 -385.78	  232.16
     29.8712	  426.00	  458.47	 -385.97	  232.21
     29.9213	  444.00	  479.41	 -388.91	  232.25
     29.9714	  501.00	  500.22	 -352.72	  232.29
     30.0216	  464.00	  519.63	 -409.13	  232.33
     30.0717	  510.00	  536.12	 -379.62	  232.37
     30.1218	  542.00	  548.09	 -359.59	  232.41
     30.1720	  507.00	  554.21	 -400.71	  232.46
     30.2221	  548.00	  553.75	 -359.25	  232.50
     30.2722	  542.00	  546.78	 -358.28	  232.54
     30.3224	  578.00	  534.14	 -309.64	  232.58
     30.3725	  494.00	  517.24	 -376.74	  232.62
     30.4226	  484.00	  497.65	 -367.15	  232.66
     30.4728	  480.00	  476.88	 -350.38	  232.71
     30.5229	  448.00	  456.11	 -361.61	  232.75
     30.5730	  414.00	  436.19	 -375.69	  232.79
     30.6232	  429.00	  417.64	 -342.14	  232.83
     30.6733	  389.00	  400.71	 -365.21	  232.87
     30.7234	  375.00	  385.48	 -363.98	  232.92
     30.7736	  395.00	  371.90	 -330.40	  232.96
     30.8237	  331.00	  359.87	 -382.37	  233.00
     30.8738	  385.00	  349.25	 -317.75	  233.04
     30.9240	  315.00	  339.89	 -378.39	  233.08
     30.9741	  311.00	  331.64	 -374.14	  233.12
     31.0243	  353.00	  324.36	 -324.86	  233.17
     31.0744	  309.00	  317.94	 -362.44	  233.21
     31.1245	  345.00	  312.26	 -320.76	  233.25
     31.1747	  331.00	  307.23	 -329.73	  233.29
     31.2248	  287.00	  302.76	 -369.26	  233.33
     31.2749	  314.00	  298.77	 -338.27	  233.37
     31.3251	  297.00	  295.22	 -351.72	  233.42
     31.3752	  301.00	  292.03	 -344.53	  233.46
     31.4253	  308.00	  289.16	 -334.66	  233.50
     31.4755	  317.00	  296.83	 -333.33	  233.54
     31.5256	  276.00	  294.76	 -372.26	  233.58
     31.5757	  322.00	  298.03	 -329.53	  233.63
     31.6259	  313.00	  296.52	 -337.02	  233.67
     31.6760	  300.00	  295.19	 -348.69	  233.71
     31.7261	  300.00	  294.03	 -347.53	  233.75
     31.7763	  267.00	  293.02	 -379.52	  233.79
     31.8264	  280.00	  292.15	 -365.65	  233.83
     31.8765	  271.00	  290.98	 -373.48	  233.44
     31.9267	  277.00	  289.90	 -366.40	  233.03
     31.9768	  283.00	  288.93	 -359.43	  232.61
     32.0269	  299.00	  288.07	 -342.57	  232.19
     32.0771	  285.00	  287.29	 -355.79	  231.77
     32.1272	  264.00	  286.61	 -376.11	  231.36
     32.1773	  263.00	  286.02	 -376.52	  230.94
     32.2275	  296.00	  285.50	 -343.00	  230.52
     32.2776	  265.00	  285.06	 -373.56	  230.10
     32.3277	  271.00	  284.70	 -367.20	  229.68
     32.3779	  282.00	  284.42	 -355.92	  229.27
     32.4280	  277.00	  284.21	 -360.71	  228.85
     32.4781	  276.00	  284.06	 -361.56	  228.43
     32.5283	  261.00	  283.99	 -376.49	  228.01
     32.5784	  281.00	  284.00	 -356.50	  227.60
     32.6285	  282.00	  284.07	 -355.57	  227.18
     32.6787	  280.00	  284.22	 -357.72	  226.76
     32.7288	  272.00	  284.44	 -365.94	  226.34
     32.7789	  245.00	  284.73	 -393.23	  225.93
     32.8291	  307.00	  285.11	 -331.61	  225.51
     32.8792	  292.00	  285.56	 -347.06	  225.09
     32.9293	  301.00	  286.10	 -338.60	  224.67
     32.9795	  295.00	  286.73	 -345.23	  224.26
     33.0296	  270.00	  287.45	 -370.95	  223.84
     33.0797	  270.00	  289.06	 -372.56	  223.42
     33.1299	  275.00	  290.00	 -368.50	  223.00
     33.1800	  294.00	  291.44	 -350.94	  222.59
     33.2301	  306.00	  292.62	 -340.12	  222.17
     33.2803	  289.00	  293.91	 -358.41	  221.75
     33.3304	  310.00	  295.34	 -338.84	  221.33
     33.3805	  346.00	  296.92	 -304.42	  220.92
     33.4307	  304.00	  298.65	 -348.15	  220.50
     33.4808	  318.00	  300.54	 -336.04	  220.08
     33.5309	  310.00	  302.62	 -346.12	  219.66
     33.5811	  313.00	  304.89	 -345.39	  219.24
     33.6312	  332.00	  307.37	 -328.87	  218.83
     33.6813	  358.00	  310.09	 -305.59	  218.41
     33.7315	  332.00	  313.06	 -334.56	  217.99
     33.7816	  353.00	  316.31	 -316.81	  217.57
     33.8317	  316.00	  319.86	 -357.36	  217.16
     33.8819	  350.00	  323.76	 -327.26	  216.74
     33.9320	  342.00	  328.03	 -339.53	  216.32
     33.9821	  343.00	  329.67	 -340.17	  215.89
     34.0323	  396.00	  334.87	 -292.37	  215.45
     34.0824	  374.00	  339.10	 -318.60	  215.00
     34.1325	  369.00	  345.42	 -329.92	  214.56
     34.1827	  396.00	  352.38	 -309.88	  214.12
     34.2328	  405.00	  360.06	 -308.56	  213.68
     34.2829	  408.00	  368.56	 -314.06	  213.24
     34.3331	  409.00	  377.98	 -322.48	  212.79
     34.3832	  444.00	  388.44	 -297.94	  212.35
     34.4333	  425.00	  400.10	 -328.60	  211.91
     34.4835	  423.00	  413.11	 -343.61	  211.47
     34.5336	  462.00	  427.67	 -319.17	  211.02
     34.5838	  482.00	  444.01	 -315.51	  210.58
     34.6339	  486.00	  462.37	 -329.87	  210.14
     34.6840	  522.00	  483.06	 -314.56	  209.70
     34.7342	  532.00	  506.41	 -327.91	  209.26
     34.7843	  536.00	  532.79	 -350.29	  208.81
     34.8344	  579.00	  562.63	 -337.13	  208.37
     34.8846	  575.00	  596.38	 -374.88	  207.93
     34.9347	  625.00	  634.54	 -363.04	  207.49
     34.9848	  674.00	  677.59	 -357.09	  207.05
     35.0350	  668.00	  725.96	 -411.46	  206.60
     35.0851	  818.00	  779.97	 -315.47	  206.16
