 Fe3O4   Chi2:  1.9325  CELL:    8.39510   8.39510   8.39510   90.0000   90.0000   90.0000   SPGR: 227:1                  TEMP:      0.00
  1   3142     1.54060     1.54439     0.00000     0.04192     0.00000    0
    82     0     1
       0.00000      15.00000
 2Theta	Yobs	Ycal	Yobs-Ycal	Backg	Posr	(hkl)	K
     15.0031	  60.000	  56.789	-246.039	  55.405
     15.0365	  52.000	  56.789	-254.039	  55.405
     15.0700	  56.000	  56.841	-250.091	  55.405
     15.1034	  57.000	  56.867	-249.117	  55.405
     15.1368	  61.000	  56.869	-245.119	  55.405
     15.1702	  65.000	  56.871	-241.121	  55.405
     15.2036	  62.000	  56.872	-244.122	  55.405
     15.2371	  50.000	  56.874	-256.124	  55.405
     15.2705	  52.000	  56.876	-254.126	  55.405
     15.3039	  62.000	  56.878	-244.128	  55.405
     15.3373	  60.000	  56.880	-246.130	  55.405
     15.3708	  62.000	  56.882	-244.132	  55.405
     15.4042	  51.000	  56.884	-255.134	  55.405
     15.4376	  63.000	  56.886	-243.136	  55.405
     15.4710	  65.000	  56.889	-241.139	  55.405
     15.5044	  58.000	  56.891	-248.141	  55.405
     15.5379	  55.000	  56.893	-251.143	  55.405
     15.5713	  73.000	  56.896	-233.146	  55.405
     15.6047	  48.000	  56.898	-258.148	  55.405
     15.6381	  45.000	  56.901	-261.151	  55.405
     15.6716	  60.000	  56.904	-246.154	  55.405
     15.7050	  68.000	  56.907	-238.157	  55.405
     15.7384	  58.000	  56.910	-248.160	  55.405
     15.7718	  56.000	  56.913	-250.163	  55.405
     15.8053	  52.000	  56.916	-254.166	  55.405
     15.8387	  63.000	  56.832	-243.082	  55.317
     15.8721	  69.000	  56.575	-236.825	  55.056
     15.9055	  65.000	  56.317	-240.567	  54.795
     15.9389	  51.000	  56.060	-254.310	  54.534
     15.9724	  75.000	  55.803	-230.053	  54.273
     16.0058	  45.000	  55.546	-259.796	  54.012
     16.0392	  62.000	  55.290	-242.540	  53.751
     16.0726	  56.000	  55.033	-248.283	  53.490
     16.1061	  58.000	  54.777	-246.027	  53.229
     16.1395	  52.000	  54.521	-251.771	  52.968
     16.1729	  56.000	  54.265	-247.515	  52.707
     16.2063	  61.000	  54.010	-242.260	  52.446
     16.2397	  49.000	  53.754	-254.004	  52.185
     16.2732	  53.000	  53.499	-249.749	  51.924
     16.3066	  62.000	  53.245	-240.495	  51.663
     16.3400	  48.000	  52.990	-254.240	  51.402
     16.3734	  64.000	  52.736	-237.986	  51.141
     16.4069	  51.000	  52.482	-250.732	  50.880
     16.4403	  44.000	  52.229	-257.479	  50.619
     16.4737	  49.000	  51.976	-252.226	  50.358
     16.5071	  61.000	  51.724	-239.974	  50.097
     16.5405	  45.000	  51.472	-255.722	  49.836
     16.5740	  49.000	  51.220	-251.470	  49.575
     16.6074	  53.000	  50.969	-247.219	  49.314
     16.6408	  45.000	  50.719	-254.969	  49.053
     16.6742	  60.000	  50.469	-239.719	  48.792
     16.7077	  53.000	  50.220	-246.470	  48.531
     16.7411	  70.000	  49.972	-229.222	  48.270
     16.7745	  52.000	  49.725	-246.975	  48.009
     16.8079	  50.000	  49.478	-248.728	  47.748
     16.8414	  51.000	  49.233	-247.483	  47.487
     16.8748	  41.000	  48.988	-257.238	  47.226
     16.9082	  34.000	  48.745	-263.995	  46.965
     16.9416	  66.000	  48.503	-231.753	  46.704
     16.9750	  58.000	  48.262	-239.512	  46.443
     17.0085	  56.000	  48.023	-241.273	  46.182
     17.0419	  50.000	  47.786	-247.036	  45.921
     17.0753	  55.000	  47.550	-241.800	  45.660
     17.1087	  54.000	  47.317	-242.567	  45.399
     17.1422	  42.000	  47.085	-254.335	  45.138
     17.1756	  53.000	  46.857	-243.107	  44.877
     17.2090	  50.000	  46.631	-245.881	  44.616
     17.2424	  56.000	  46.409	-239.659	  44.355
     17.2758	  39.000	  46.190	-256.440	  44.094
     17.3093	  46.000	  45.975	-249.225	  43.833
     17.3427	  48.000	  45.765	-247.015	  43.572
     17.3761	  62.000	  45.560	-232.810	  43.311
     17.4095	  45.000	  45.361	-249.611	  43.050
     17.4430	  53.000	  45.169	-241.419	  42.789
     17.4764	  58.000	  44.985	-236.235	  42.528
     17.5098	  33.000	  44.811	-261.061	  42.267
     17.5432	  52.000	  44.647	-241.897	  42.006
     17.5766	  52.000	  44.496	-241.746	  41.745
     17.6101	  41.000	  44.360	-252.610	  41.484
     17.6435	  42.000	  44.242	-251.492	  41.223
     17.6769	  57.000	  44.145	-236.395	  40.962
     17.7103	  49.000	  44.074	-244.324	  40.701
     17.7438	  54.000	  44.035	-239.285	  40.440
     17.7772	  41.000	  44.034	-252.284	  40.179
     17.8106	  44.000	  44.096	-249.346	  39.932
     17.8440	  52.000	  44.368	-241.618	  39.833
     17.8774	  43.000	  44.717	-250.967	  39.735
     17.9109	  36.000	  45.167	-258.417	  39.636
     17.9443	  55.000	  45.750	-240.000	  39.538
     17.9777	  49.000	  46.514	-246.764	  39.439
     18.0111	  40.000	  47.534	-256.784	  39.340
     18.0446	  48.000	  48.939	-250.189	  39.242
     18.0780	  48.000	  50.970	-252.220	  39.143
     18.1114	  49.000	  54.083	-254.333	  39.045
     18.1448	  57.000	  59.077	-251.327	  38.946
     18.1783	  63.000	  67.145	-253.395	  38.847
     18.2117	  56.000	  79.700	-272.950	  38.749
     18.2451	  73.000	  97.742	-273.992	  38.650
     18.2785	  91.000	 120.293	-278.543	  38.552
     18.3119	 119.000	 141.343	-271.593	  38.453
     18.3454	 138.000	 149.882	-261.132	  38.354
     18.3788	  93.000	 140.716	-296.966	  38.256
     18.4122	 100.000	 120.060	-269.310	  38.157
     18.4456	  70.000	  97.683	-276.933	  38.058
     18.4791	  68.000	  79.448	-260.698	  37.960
     18.5125	  65.000	  66.582	-250.832	  37.861
     18.5459	  45.000	  58.191	-262.441	  37.763
     18.5793	  48.000	  52.896	-254.146	  37.664
     18.6127	  43.000	  49.513	-255.763	  37.565
     18.6462	  33.000	  47.241	-263.491	  37.467
     18.6796	  32.000	  45.614	-262.864	  37.368
     18.7130	  32.000	  44.383	-261.633	  37.270
     18.7464	  37.000	  43.412	-255.662	  37.171
     18.7799	  39.000	  42.625	-252.875	  37.072
     18.8133	  39.000	  41.974	-252.224	  36.974
     18.8467	  48.000	  41.424	-242.674	  36.875
     18.8801	  39.000	  40.953	-251.203	  36.777
     18.9135	  34.000	  40.544	-255.794	  36.678
     18.9470	  42.000	  40.183	-247.433	  36.579
     18.9804	  33.000	  39.862	-256.112	  36.481
     19.0138	  36.000	  39.572	-252.822	  36.382
     19.0472	  37.000	  39.308	-251.558	  36.284
     19.0807	  41.000	  39.066	-247.316	  36.185
     19.1141	  39.000	  38.842	-249.092	  36.086
     19.1475	  36.000	  38.633	-251.883	  35.988
     19.1809	  44.000	  38.437	-243.687	  35.889
     19.2144	  43.000	  38.251	-244.501	  35.791
     19.2478	  33.000	  38.075	-254.325	  35.692
     19.2812	  19.000	  37.907	-268.157	  35.593
     19.3146	  38.000	  37.746	-248.996	  35.495
     19.3480	  41.000	  37.591	-245.841	  35.396
     19.3815	  32.000	  37.442	-254.692	  35.298
     19.4149	  54.000	  37.297	-232.547	  35.199
     19.4483	  31.000	  37.156	-255.406	  35.100
     19.4817	  29.000	  37.018	-257.268	  35.002
     19.5152	  32.000	  36.885	-254.135	  34.903
     19.5486	  29.000	  36.753	-257.003	  34.805
     19.5820	  30.000	  36.625	-255.875	  34.706
     19.6154	  41.000	  36.499	-244.749	  34.607
     19.6488	  32.000	  36.375	-253.625	  34.509
     19.6823	  39.000	  36.252	-246.502	  34.410
     19.7157	  43.000	  36.132	-242.382	  34.312
     19.7491	  44.000	  36.013	-241.263	  34.213
     19.7825	  46.000	  35.895	-239.145	  34.114
     19.8160	  44.000	  35.779	-241.029	  34.016
     19.8494	  31.000	  35.664	-253.914	  33.917
     19.8828	  32.000	  35.550	-252.800	  33.819
     19.9162	  38.000	  35.436	-246.686	  33.720
     19.9496	  40.000	  35.324	-244.574	  33.621
     19.9831	  39.000	  35.213	-245.463	  33.523
     20.0165	  44.000	  35.102	-240.352	  33.424
     20.0499	  24.000	  34.992	-260.242	  33.326
     20.0833	  43.000	  34.883	-241.133	  33.227
     20.1168	  28.000	  34.774	-256.024	  33.128
     20.1502	  41.000	  34.666	-242.916	  33.030
     20.1836	  32.000	  34.558	-251.808	  32.931
     20.2170	  38.000	  34.451	-245.701	  32.833
     20.2505	  29.000	  34.344	-254.594	  32.734
     20.2839	  32.000	  34.238	-251.488	  32.635
     20.3173	  33.000	  34.132	-250.382	  32.537
     20.3507	  36.000	  34.027	-247.277	  32.438
     20.3841	  31.000	  33.925	-252.175	  32.343
     20.4176	  43.000	  33.824	-240.074	  32.248
     20.4510	  37.000	  33.723	-245.973	  32.153
     20.4844	  36.000	  33.622	-246.872	  32.058
     20.5178	  33.000	  33.522	-249.772	  31.963
     20.5513	  34.000	  33.422	-248.672	  31.868
     20.5847	  38.000	  33.322	-244.572	  31.773
     20.6181	  46.000	  33.222	-236.472	  31.679
     20.6515	  25.000	  33.123	-257.373	  31.584
     20.6849	  43.000	  33.023	-239.273	  31.489
     20.7184	  33.000	  32.924	-249.174	  31.394
     20.7518	  30.000	  32.825	-252.075	  31.299
     20.7852	  30.000	  32.727	-251.977	  31.204
     20.8186	  32.000	  32.628	-249.878	  31.109
     20.8521	  41.000	  32.529	-240.779	  31.014
     20.8855	  27.000	  32.431	-254.681	  30.919
     20.9189	  41.000	  32.333	-240.583	  30.824
     20.9523	  36.000	  32.235	-245.485	  30.729
     20.9857	  40.000	  32.137	-241.387	  30.635
     21.0192	  29.000	  32.039	-252.289	  30.540
     21.0526	  30.000	  31.941	-251.191	  30.445
     21.0860	  27.000	  31.844	-254.094	  30.350
     21.1194	  46.000	  31.746	-234.996	  30.255
     21.1529	  24.000	  31.649	-256.899	  30.160
     21.1863	  30.000	  31.551	-250.801	  30.065
     21.2197	  34.000	  31.454	-246.704	  29.970
     21.2531	  27.000	  31.357	-253.607	  29.875
     21.2865	  32.000	  31.260	-248.510	  29.780
     21.3200	  44.000	  31.163	-236.413	  29.685
     21.3534	  34.000	  31.066	-246.316	  29.591
     21.3868	  36.000	  30.969	-244.219	  29.496
     21.4202	  27.000	  30.872	-253.122	  29.401
     21.4537	  26.000	  30.775	-254.025	  29.306
     21.4871	  30.000	  30.624	-249.874	  29.211
     21.5205	  32.000	  30.501	-247.751	  29.116
     21.5539	  34.000	  30.406	-245.656	  29.021
     21.5874	  28.000	  30.311	-251.561	  28.926
     21.6208	  32.000	  30.216	-247.466	  28.831
     21.6542	  29.000	  30.121	-250.371	  28.736
     21.6876	  33.000	  30.026	-246.276	  28.641
     21.7210	  34.000	  29.931	-245.181	  28.546
     21.7545	  36.000	  29.836	-243.086	  28.452
     21.7879	  33.000	  29.741	-245.991	  28.357
     21.8213	  37.000	  29.647	-241.897	  28.262
     21.8547	  36.000	  29.552	-242.802	  28.167
     21.8882	  32.000	  29.457	-246.707	  28.072
     21.9216	  30.000	  29.362	-248.612	  27.977
     21.9550	  25.000	  29.267	-253.517	  27.882
     21.9884	  29.000	  29.172	-249.422	  27.787
     22.0218	  29.000	  29.077	-249.327	  27.692
     22.0553	  43.000	  28.982	-235.232	  27.597
     22.0887	  24.000	  28.887	-254.137	  27.502
     22.1221	  31.000	  28.792	-247.042	  27.408
     22.1555	  34.000	  28.697	-243.947	  27.313
     22.1890	  37.000	  28.603	-240.853	  27.218
     22.2224	  34.000	  28.508	-243.758	  27.123
     22.2558	  33.000	  28.413	-244.663	  27.028
     22.2892	  33.000	  28.318	-244.568	  26.933
     22.3226	  28.000	  28.223	-249.473	  26.838
     22.3561	  37.000	  28.128	-240.378	  26.743
     22.3895	  36.000	  28.033	-241.283	  26.648
     22.4229	  19.000	  27.938	-258.188	  26.553
     22.4563	  32.000	  27.843	-245.093	  26.458
     22.4898	  34.000	  27.748	-242.998	  26.364
     22.5232	  22.000	  27.653	-254.903	  26.269
     22.5566	  27.000	  27.559	-249.809	  26.174
     22.5900	  26.000	  27.464	-250.714	  26.079
     22.6234	  26.000	  27.369	-250.619	  25.984
     22.6569	  33.000	  27.274	-243.524	  25.889
     22.6903	  24.000	  27.179	-252.429	  25.794
     22.7237	  22.000	  27.084	-254.334	  25.699
     22.7571	  28.000	  26.989	-248.239	  25.604
     22.7906	  28.000	  26.894	-248.144	  25.509
     22.8240	  37.000	  26.799	-239.049	  25.414
     22.8574	  31.000	  26.704	-244.954	  25.320
     22.8908	  31.000	  26.609	-244.859	  25.225
     22.9243	  25.000	  26.514	-250.764	  25.130
     22.9577	  30.000	  26.420	-245.670	  25.035
     22.9911	  30.000	  26.325	-245.575	  24.940
     23.0245	  18.000	  26.230	-257.480	  24.845
     23.0579	  30.000	  26.135	-245.385	  24.750
     23.0914	  32.000	  26.040	-243.290	  24.655
     23.1248	  24.000	  25.945	-251.195	  24.560
     23.1582	  25.000	  25.850	-250.100	  24.465
     23.1916	  29.000	  25.755	-246.005	  24.370
     23.2251	  34.000	  25.660	-240.910	  24.275
     23.2585	  28.000	  25.565	-246.815	  24.181
     23.2919	  17.000	  25.470	-257.720	  24.086
     23.3253	  31.000	  25.376	-243.626	  23.991
     23.3587	  21.000	  25.281	-253.531	  23.896
     23.3922	  21.000	  25.186	-253.436	  23.801
     23.4256	  18.000	  25.091	-256.341	  23.706
     23.4590	  21.000	  24.996	-253.246	  23.611
     23.4924	  28.000	  24.936	-246.186	  23.551
     23.5259	  27.000	  24.883	-247.133	  23.499
     23.5593	  26.000	  24.831	-248.081	  23.446
     23.5927	  18.000	  24.779	-256.029	  23.394
     23.6261	  26.000	  24.727	-247.977	  23.342
     23.6595	  24.000	  24.675	-249.925	  23.290
     23.6930	  27.000	  24.622	-246.872	  23.238
     23.7264	  22.000	  24.570	-251.820	  23.185
     23.7598	  15.000	  24.518	-258.768	  23.133
     23.7932	  17.000	  24.466	-256.716	  23.081
     23.8267	  40.000	  24.414	-233.664	  23.029
     23.8601	  31.000	  24.361	-242.611	  22.977
     23.8935	  19.000	  24.309	-254.559	  22.924
     23.9269	  21.000	  24.257	-252.507	  22.872
     23.9604	  18.000	  24.205	-255.455	  22.820
     23.9938	  25.000	  24.153	-248.403	  22.768
     24.0272	  37.000	  24.100	-236.350	  22.716
     24.0606	  27.000	  24.048	-246.298	  22.663
     24.0940	  22.000	  23.996	-251.246	  22.611
     24.1275	  24.000	  23.944	-249.194	  22.559
     24.1609	  29.000	  23.892	-244.142	  22.507
     24.1943	  28.000	  23.839	-245.089	  22.455
     24.2277	  29.000	  23.787	-244.037	  22.402
     24.2612	  30.000	  23.735	-242.985	  22.350
     24.2946	  27.000	  23.683	-245.933	  22.298
     24.3280	  19.000	  23.631	-253.881	  22.246
     24.3614	  31.000	  23.578	-241.828	  22.194
     24.3948	  27.000	  23.526	-245.776	  22.141
     24.4283	  31.000	  23.474	-241.724	  22.089
     24.4617	  28.000	  23.422	-244.672	  22.037
     24.4951	  20.000	  23.370	-252.620	  21.985
     24.5285	  29.000	  23.317	-243.567	  21.933
     24.5620	  17.000	  23.265	-255.515	  21.880
     24.5954	  21.000	  23.213	-251.463	  21.828
     24.6288	  27.000	  23.161	-245.411	  21.776
     24.6622	  30.000	  23.109	-242.359	  21.724
     24.6956	  19.000	  23.056	-253.306	  21.672
     24.7291	  25.000	  23.004	-247.254	  21.619
     24.7625	  26.000	  22.952	-246.202	  21.567
     24.7959	  27.000	  22.900	-245.150	  21.515
     24.8293	  31.000	  22.848	-241.098	  21.463
     24.8628	  21.000	  22.795	-251.045	  21.411
     24.8962	  18.000	  22.743	-253.993	  21.358
     24.9296	  17.000	  22.691	-254.941	  21.306
     24.9630	  22.000	  22.639	-249.889	  21.254
     24.9964	  16.000	  22.587	-255.837	  21.202
     25.0299	  33.000	  22.534	-238.784	  21.150
     25.0633	  22.000	  22.482	-249.732	  21.097
     25.0967	  28.000	  22.430	-243.680	  21.045
     25.1301	  10.000	  22.378	-261.628	  20.993
     25.1636	  26.000	  22.326	-245.576	  20.941
     25.1970	  25.000	  22.273	-246.523	  20.889
     25.2304	  27.000	  22.221	-244.471	  20.836
     25.2638	  20.000	  22.169	-251.419	  20.784
     25.2973	  20.000	  22.117	-251.367	  20.732
     25.3307	  31.000	  22.065	-240.315	  20.680
     25.3641	  21.000	  22.012	-250.262	  20.628
     25.3975	  20.000	  21.960	-251.210	  20.575
     25.4309	  24.000	  21.908	-247.158	  20.523
     25.4644	  14.000	  21.856	-257.106	  20.471
     25.4978	  25.000	  21.804	-246.054	  20.419
     25.5312	  16.000	  21.751	-255.001	  20.367
     25.5646	  30.000	  21.699	-240.949	  20.314
     25.5981	  19.000	  21.647	-251.897	  20.262
     25.6315	  19.000	  21.595	-251.845	  20.210
     25.6649	  31.000	  21.543	-239.793	  20.158
     25.6983	  28.000	  21.490	-242.740	  20.106
     25.7317	  20.000	  21.438	-250.688	  20.053
     25.7652	  25.000	  21.386	-245.636	  20.001
     25.7986	  18.000	  21.334	-252.584	  19.949
     25.8320	  27.000	  21.282	-243.532	  19.897
     25.8654	  26.000	  21.229	-244.479	  19.845
     25.8989	  17.000	  21.177	-253.427	  19.792
     25.9323	  38.000	  21.125	-232.375	  19.740
     25.9657	  26.000	  21.073	-244.323	  19.688
     25.9991	  18.000	  21.021	-252.271	  19.636
     26.0325	  24.000	  20.968	-246.218	  19.584
     26.0660	  22.000	  20.916	-248.166	  19.531
     26.0994	  28.000	  20.864	-242.114	  19.479
     26.1328	  21.000	  20.812	-249.062	  19.427
     26.1662	  19.000	  20.760	-251.010	  19.375
     26.1997	  26.000	  20.707	-243.957	  19.323
     26.2331	  19.000	  20.655	-250.905	  19.270
     26.2665	  22.000	  20.603	-247.853	  19.218
     26.2999	  25.000	  20.551	-244.801	  19.166
     26.3334	  19.000	  20.499	-250.749	  19.114
     26.3668	  24.000	  20.446	-245.696	  19.062
     26.4002	  17.000	  20.394	-252.644	  19.009
     26.4336	  22.000	  20.342	-247.592	  18.957
     26.4670	  16.000	  20.290	-253.540	  18.905
     26.5005	  20.000	  20.238	-249.488	  18.853
     26.5339	  22.000	  20.185	-247.435	  18.801
     26.5673	  20.000	  20.133	-249.383	  18.748
     26.6007	  17.000	  20.081	-252.331	  18.696
     26.6342	  14.000	  20.029	-255.279	  18.644
     26.6676	  19.000	  19.976	-250.227	  18.592
     26.7010	  21.000	  19.924	-248.174	  18.539
     26.7344	  18.000	  19.872	-251.122	  18.487
     26.7678	  33.000	  19.820	-236.070	  18.435
     26.8013	  20.000	  19.768	-249.018	  18.383
     26.8347	  20.000	  19.715	-248.965	  18.331
     26.8681	  27.000	  19.871	-242.121	  18.278
     26.9015	  22.000	  19.823	-247.073	  18.226
     26.9350	  24.000	  19.878	-245.128	  18.174
     26.9684	  31.000	  19.832	-238.082	  18.122
     27.0018	  20.000	  19.787	-249.037	  18.070
     27.0352	  21.000	  19.742	-247.992	  18.017
     27.0686	  29.000	  19.697	-239.947	  17.965
     27.1021	  26.000	  19.653	-242.903	  17.913
     27.1355	  15.000	  19.608	-253.858	  17.861
     27.1689	  27.000	  19.564	-241.814	  17.809
     27.2023	  22.000	  19.521	-246.771	  17.756
     27.2358	  14.000	  19.477	-254.727	  17.704
     27.2692	  19.000	  19.434	-249.684	  17.652
     27.3026	  25.000	  19.391	-243.641	  17.600
     27.3360	  22.000	  19.349	-246.599	  17.548
     27.3694	  21.000	  19.307	-247.557	  17.495
     27.4029	  16.000	  19.265	-252.515	  17.443
     27.4363	  13.000	  19.223	-255.473	  17.391
     27.4697	  20.000	  19.182	-248.432	  17.339
     27.5031	  25.000	  19.142	-243.392	  17.287
     27.5366	  16.000	  19.102	-252.352	  17.234
     27.5700	  19.000	  19.062	-249.312	  17.182
     27.6034	  25.000	  19.023	-243.273	  17.130
     27.6368	  16.000	  18.984	-252.234	  17.078
     27.6703	  34.000	  18.946	-234.196	  17.026
     27.7037	  17.000	  18.909	-251.159	  16.973
     27.7371	  18.000	  18.890	-250.140	  16.939
     27.7705	  19.000	  18.875	-249.125	  16.908
     27.8039	  15.000	  18.861	-253.111	  16.878
     27.8374	  25.000	  18.847	-243.097	  16.847
     27.8708	  18.000	  18.834	-250.084	  16.816
     27.9042	  22.000	  18.823	-246.073	  16.785
     27.9376	  28.000	  18.811	-240.061	  16.754
     27.9711	  24.000	  18.801	-244.051	  16.723
     28.0045	  14.000	  18.792	-254.042	  16.692
     28.0379	  20.000	  18.784	-248.034	  16.661
     28.0713	  22.000	  18.777	-246.027	  16.630
     28.1047	  24.000	  18.771	-244.021	  16.599
     28.1382	  19.000	  18.766	-249.016	  16.568
     28.1716	  21.000	  18.763	-247.013	  16.537
     28.2050	  16.000	  18.761	-252.011	  16.506
     28.2384	  18.000	  18.761	-250.011	  16.475
     28.2719	  19.000	  18.762	-249.012	  16.444
     28.3053	  24.000	  18.765	-244.015	  16.413
     28.3387	  10.000	  18.770	-258.020	  16.383
     28.3721	  19.000	  18.777	-249.027	  16.352
