 Fe3O4   Chi2:  3.3403  CELL:    8.34680   8.34680   8.34680   90.0000   90.0000   90.0000   SPGR: 227:1                  TEMP:      0.00
  1   1695     1.54060     1.54439     0.00000    -0.04480     0.00000    0
    78     0     1
       0.00000      15.00000
 2Theta	Yobs	Ycal	Yobs-Ycal	Backg	Posr	(hkl)	K
     15.0483	 2300.00	 2137.67	 -439.91	 2058.69
     15.0984	 2261.00	 2137.68	 -478.93	 2058.69
     15.1485	 2136.00	 2137.70	 -603.94	 2058.69
     15.1987	 2169.00	 2139.29	 -572.53	 2060.27
     15.2488	 2195.00	 2126.79	 -534.03	 2047.76
     15.2989	 2192.00	 2114.29	 -524.53	 2035.24
     15.3491	 2185.00	 2101.79	 -519.04	 2022.73
     15.3992	 2283.00	 2089.30	 -408.54	 2010.22
     15.4493	 2112.00	 2076.80	 -567.04	 1997.70
     15.4995	 2115.00	 2064.30	 -551.55	 1985.19
     15.5496	 2038.00	 2051.81	 -616.05	 1972.67
     15.5997	 2052.00	 2039.32	 -589.56	 1960.16
     15.6499	 2001.00	 2026.82	 -628.06	 1947.65
     15.7000	 2086.00	 2014.33	 -530.57	 1935.13
     15.7501	 1914.00	 2001.84	 -690.08	 1922.62
     15.8003	 1949.00	 1987.75	 -640.99	 1908.50
     15.8504	 2058.00	 1971.69	 -515.93	 1892.41
     15.9005	 1935.00	 1955.62	 -622.86	 1876.32
     15.9507	 2020.00	 1939.56	 -521.80	 1860.23
     16.0008	 2124.00	 1923.50	 -401.75	 1844.14
     16.0509	 1897.00	 1907.45	 -612.69	 1828.05
     16.1011	 1960.00	 1891.39	 -533.63	 1811.95
     16.1512	 1948.00	 1880.31	 -534.55	 1800.83
     16.2013	 1906.00	 1870.60	 -566.84	 1791.08
     16.2515	 1951.00	 1860.89	 -512.14	 1781.33
     16.3016	 1930.00	 1851.19	 -523.43	 1771.58
     16.3517	 1914.00	 1841.49	 -529.73	 1761.83
     16.4019	 1884.00	 1831.79	 -550.03	 1752.07
     16.4520	 1879.00	 1822.10	 -545.34	 1742.32
     16.5021	 1892.00	 1812.41	 -522.65	 1732.57
     16.5523	 1885.00	 1802.73	 -519.97	 1722.82
     16.6024	 1920.00	 1793.05	 -475.30	 1713.06
     16.6525	 1949.00	 1783.38	 -436.63	 1703.31
     16.7027	 1836.00	 1773.72	 -539.97	 1693.56
     16.7528	 1922.00	 1764.07	 -444.31	 1683.81
     16.8029	 1854.00	 1754.66	 -502.90	 1674.29
     16.8531	 1859.00	 1745.54	 -488.79	 1665.06
     16.9032	 1903.00	 1736.44	 -435.68	 1655.82
     16.9534	 1873.00	 1727.35	 -456.59	 1646.58
     17.0035	 1885.00	 1718.27	 -435.51	 1637.35
     17.0536	 1836.00	 1709.21	 -475.46	 1628.11
     17.1038	 1842.00	 1700.18	 -460.42	 1618.88
     17.1539	 1790.00	 1691.16	 -503.41	 1609.64
     17.2040	 1760.00	 1682.18	 -524.42	 1600.41
     17.2542	 1843.00	 1673.23	 -432.47	 1591.17
     17.3043	 1744.00	 1664.32	 -522.56	 1581.93
     17.3544	 1790.00	 1655.45	 -467.69	 1572.70
     17.4046	 1647.00	 1646.64	 -601.88	 1563.46
     17.4547	 1593.00	 1637.90	 -647.14	 1554.23
     17.5048	 1670.00	 1629.24	 -561.48	 1544.99
     17.5550	 1706.00	 1620.68	 -516.92	 1535.76
     17.6051	 1727.00	 1612.54	 -487.79	 1526.81
     17.6552	 1690.00	 1605.35	 -517.60	 1518.66
     17.7054	 1641.00	 1598.37	 -559.61	 1510.51
     17.7555	 1639.00	 1591.64	 -554.89	 1502.35
     17.8056	 1665.00	 1585.28	 -522.52	 1494.20
     17.8558	 1601.00	 1579.38	 -580.63	 1486.05
     17.9059	 1555.00	 1574.15	 -621.39	 1477.90
     17.9560	 1621.00	 1569.83	 -551.07	 1469.74
     18.0062	 1592.00	 1566.77	 -577.01	 1461.59
     18.0563	 1568.00	 1565.41	 -599.65	 1453.44
     18.1064	 1524.00	 1566.28	 -644.52	 1445.28
     18.1566	 1550.00	 1569.89	 -622.13	 1437.13
     18.2067	 1500.00	 1576.35	 -678.59	 1428.98
     18.2568	 1536.00	 1584.58	 -650.82	 1420.82
     18.3070	 1493.00	 1591.14	 -700.39	 1412.67
     18.3571	 1498.00	 1590.60	 -694.84	 1404.52
     18.4072	 1465.00	 1579.23	 -716.47	 1396.37
     18.4574	 1544.00	 1558.99	 -617.23	 1388.47
     18.5075	 1460.00	 1536.58	 -678.83	 1382.24
     18.5576	 1484.00	 1514.78	 -633.02	 1376.02
     18.6078	 1527.00	 1495.55	 -570.79	 1369.80
     18.6579	 1472.00	 1479.17	 -609.41	 1363.57
     18.7080	 1514.00	 1465.25	 -553.49	 1357.35
     18.7582	 1487.00	 1453.25	 -568.49	 1351.12
     18.8083	 1410.00	 1442.70	 -634.94	 1344.90
     18.8584	 1411.00	 1433.19	 -624.43	 1338.68
     18.9086	 1442.00	 1424.44	 -584.69	 1332.45
     18.9587	 1433.00	 1416.25	 -585.49	 1326.23
     19.0088	 1323.00	 1408.45	 -687.69	 1320.00
     19.0590	 1419.00	 1400.95	 -584.20	 1313.78
     19.1091	 1403.00	 1393.68	 -592.93	 1307.56
     19.1592	 1438.00	 1386.59	 -550.83	 1301.33
     19.2094	 1421.00	 1379.64	 -560.88	 1295.11
     19.2595	 1356.00	 1372.80	 -619.04	 1288.88
     19.3096	 1354.00	 1365.83	 -614.08	 1282.45
     19.3598	 1381.00	 1358.93	 -580.17	 1276.00
     19.4099	 1329.00	 1352.09	 -625.33	 1269.55
     19.4600	 1360.00	 1345.30	 -587.54	 1263.11
     19.5102	 1296.00	 1338.55	 -644.79	 1256.66
     19.5603	 1318.00	 1331.84	 -616.08	 1250.21
     19.6104	 1350.00	 1325.16	 -577.40	 1243.76
     19.6606	 1371.00	 1318.50	 -549.74	 1237.32
     19.7107	 1313.00	 1311.87	 -601.11	 1230.87
     19.7608	 1311.00	 1305.25	 -596.49	 1224.42
     19.8110	 1331.00	 1298.65	 -569.90	 1217.98
     19.8611	 1308.00	 1292.07	 -586.31	 1211.53
     19.9112	 1339.00	 1285.50	 -548.74	 1205.08
     19.9614	 1317.00	 1278.94	 -564.18	 1198.63
     20.0115	 1316.00	 1272.39	 -558.63	 1192.19
     20.0616	 1280.00	 1265.85	 -588.09	 1185.74
     20.1118	 1236.00	 1259.32	 -625.56	 1179.29
     20.1619	 1291.00	 1254.91	 -566.15	 1174.96
     20.2120	 1347.00	 1251.00	 -506.24	 1171.12
     20.2622	 1203.00	 1247.09	 -646.33	 1167.28
     20.3123	 1319.00	 1243.19	 -526.43	 1163.44
     20.3624	 1291.00	 1239.29	 -550.53	 1159.60
     20.4126	 1259.00	 1235.40	 -578.64	 1155.76
     20.4627	 1294.00	 1231.51	 -539.75	 1151.92
     20.5129	 1297.00	 1227.62	 -532.87	 1148.08
     20.5630	 1235.00	 1223.74	 -590.98	 1144.25
     20.6131	 1241.00	 1219.86	 -581.10	 1140.41
     20.6633	 1201.00	 1215.98	 -617.23	 1136.57
     20.7134	 1259.00	 1212.11	 -555.35	 1132.73
     20.7635	 1230.00	 1208.24	 -580.48	 1128.89
     20.8137	 1221.00	 1204.37	 -585.61	 1125.05
     20.8638	 1186.00	 1200.50	 -616.74	 1121.21
     20.9139	 1213.00	 1196.63	 -585.87	 1117.37
     20.9641	 1198.00	 1192.76	 -597.01	 1113.53
     21.0142	 1233.00	 1188.90	 -558.14	 1109.69
     21.0643	 1185.00	 1185.04	 -602.28	 1105.85
     21.1145	 1236.00	 1181.18	 -547.42	 1102.01
     21.1646	 1279.00	 1177.32	 -500.56	 1098.17
     21.2147	 1166.00	 1173.46	 -609.70	 1094.33
     21.2649	 1202.00	 1169.60	 -569.84	 1090.49
     21.3150	 1219.00	 1166.66	 -549.90	 1087.57
     21.3651	 1123.00	 1163.77	 -643.01	 1084.69
     21.4153	 1159.00	 1160.87	 -604.11	 1081.82
     21.4654	 1218.00	 1157.97	 -542.22	 1078.94
     21.5155	 1142.00	 1155.08	 -615.32	 1076.06
     21.5657	 1157.00	 1152.19	 -597.43	 1073.18
     21.6158	 1158.00	 1149.29	 -593.54	 1070.30
     21.6659	 1164.00	 1146.40	 -584.64	 1067.42
     21.7161	 1146.00	 1143.51	 -599.75	 1064.54
     21.7662	 1143.00	 1140.62	 -599.86	 1061.66
     21.8163	 1134.00	 1137.73	 -605.97	 1058.78
     21.8665	 1204.00	 1134.84	 -533.08	 1055.90
     21.9166	 1120.00	 1131.95	 -614.19	 1053.02
     21.9667	 1181.00	 1129.06	 -550.30	 1050.14
     22.0169	 1084.00	 1126.17	 -644.41	 1047.26
     22.0670	 1147.00	 1123.28	 -578.52	 1044.38
     22.1171	 1087.00	 1120.39	 -635.63	 1041.50
     22.1673	 1102.00	 1117.50	 -617.74	 1038.62
     22.2174	 1079.00	 1114.61	 -637.85	 1035.74
     22.2675	 1155.00	 1111.72	 -558.97	 1032.86
     22.3177	 1106.00	 1108.84	 -605.08	 1029.98
     22.3678	 1144.00	 1105.95	 -564.19	 1027.10
     22.4179	 1126.00	 1103.06	 -579.31	 1024.22
     22.4681	 1051.00	 1100.18	 -651.42	 1021.34
     22.5182	 1154.00	 1097.29	 -545.53	 1018.46
     22.5683	 1138.00	 1094.40	 -558.65	 1015.58
     22.6185	 1168.00	 1091.52	 -525.76	 1012.70
     22.6686	 1130.00	 1088.63	 -560.88	 1009.82
     22.7187	 1076.00	 1085.75	 -611.99	 1006.94
     22.7689	 1065.00	 1082.86	 -620.10	 1004.06
     22.8190	 1078.00	 1080.50	 -604.74	 1001.70
     22.8691	 1100.00	 1078.67	 -580.91	  999.87
     22.9193	 1112.00	 1076.84	 -567.08	  998.05
     22.9694	 1079.00	 1075.01	 -598.25	  996.22
     23.0195	 1039.00	 1073.18	 -636.42	  994.40
     23.0697	 1100.00	 1071.35	 -573.59	  992.57
     23.1198	 1049.00	 1069.52	 -622.76	  990.75
     23.1699	 1051.00	 1067.69	 -618.93	  988.92
     23.2201	 1095.00	 1065.86	 -573.10	  987.10
     23.2702	 1076.00	 1064.03	 -590.27	  985.27
     23.3203	 1111.00	 1062.20	 -553.44	  983.44
     23.3705	 1153.00	 1060.37	 -509.61	  981.62
     23.4206	 1088.00	 1058.54	 -572.79	  979.79
     23.4707	 1107.00	 1056.71	 -551.96	  977.97
     23.5209	 1082.00	 1054.89	 -575.13	  976.14
     23.5710	 1039.00	 1053.06	 -616.30	  974.32
     23.6211	 1077.00	 1051.23	 -576.47	  972.49
     23.6713	 1010.00	 1049.40	 -641.64	  970.66
     23.7214	 1037.00	 1047.57	 -612.81	  968.84
     23.7715	 1022.00	 1045.74	 -625.98	  967.01
     23.8217	 1052.00	 1043.91	 -594.16	  965.19
     23.8718	 1004.00	 1042.09	 -640.33	  963.36
     23.9220	 1144.00	 1040.26	 -498.50	  961.54
     23.9721	 1073.00	 1038.43	 -567.67	  959.71
     24.0222	 1104.00	 1036.60	 -534.84	  957.89
     24.0724	 1066.00	 1035.12	 -571.36	  956.06
     24.1225	 1057.00	 1033.30	 -578.54	  954.23
     24.1726	 1048.00	 1031.65	 -585.89	  952.41
     24.2228	 1028.00	 1029.83	 -604.07	  950.58
     24.2729	 1054.00	 1028.01	 -576.25	  948.76
     24.3230	 1061.00	 1026.19	 -567.43	  946.93
     24.3732	 1082.00	 1024.37	 -544.61	  945.11
     24.4233	 1029.00	 1022.55	 -595.80	  943.28
     24.4734	 1040.00	 1020.62	 -582.86	  941.45
     24.5236	 1054.00	 1018.80	 -567.04	  939.63
     24.5737	 1009.00	 1016.99	 -610.23	  937.80
     24.6238	 1035.00	 1015.17	 -582.41	  935.98
     24.6740	 1072.00	 1013.36	 -543.60	  934.15
     24.7241	 1066.00	 1011.54	 -547.78	  932.33
     24.7742	 1021.00	 1009.73	 -590.97	  930.50
     24.8244	 1079.00	 1007.92	 -531.16	  928.68
     24.8745	 1004.00	 1007.39	 -605.64	  928.14
     24.9246	 1035.00	 1007.89	 -575.14	  928.63
     24.9748	 1042.00	 1008.39	 -568.64	  929.12
     25.0249	 1021.00	 1008.90	 -590.14	  929.60
     25.0750	  996.00	 1009.40	 -615.64	  930.09
     25.1252	 1017.00	 1009.90	 -595.14	  930.58
     25.1753	 1018.00	 1010.40	 -594.64	  931.07
     25.2254	  997.00	 1010.90	 -616.15	  931.55
     25.2756	 1062.00	 1011.41	 -551.65	  932.04
     25.3257	 1110.00	 1011.91	 -504.15	  932.53
     25.3758	 1024.00	 1012.42	 -590.66	  933.02
     25.4260	 1081.00	 1012.92	 -534.16	  933.50
     25.4761	 1010.00	 1013.43	 -605.67	  933.99
     25.5262	 1075.00	 1013.93	 -541.17	  934.48
     25.5764	 1054.00	 1014.44	 -562.68	  934.97
     25.6265	 1078.00	 1014.94	 -539.19	  935.45
     25.6766	 1087.00	 1015.45	 -530.69	  935.94
     25.7268	 1050.00	 1015.96	 -568.20	  936.43
     25.7769	 1069.00	 1016.47	 -549.71	  936.92
     25.8270	  959.00	 1016.98	 -660.22	  937.40
     25.8772	 1043.00	 1017.56	 -576.80	  937.96
     25.9273	 1019.00	 1018.19	 -601.43	  938.57
     25.9774	 1020.00	 1018.83	 -601.07	  939.18
     26.0276	 1060.00	 1019.46	 -561.70	  939.79
     26.0777	  954.00	 1020.10	 -668.34	  940.40
     26.1278	 1070.00	 1020.73	 -552.98	  941.01
     26.1780	 1017.00	 1021.37	 -606.61	  941.62
     26.2281	 1118.00	 1022.01	 -506.25	  942.23
     26.2782	 1048.00	 1022.65	 -576.89	  942.84
     26.3284	 1043.00	 1023.29	 -582.53	  943.45
     26.3785	 1056.00	 1023.93	 -570.18	  944.06
     26.4286	 1088.00	 1024.58	 -538.82	  944.67
     26.4788	 1126.00	 1025.22	 -501.47	  945.28
     26.5289	 1110.00	 1025.87	 -518.11	  945.88
     26.5790	 1061.00	 1026.52	 -567.76	  946.49
     26.6292	 1119.00	 1027.17	 -510.41	  947.10
     26.6793	 1134.00	 1027.82	 -496.06	  947.71
     26.7294	 1250.00	 1028.47	 -380.71	  948.32
     26.7796	 1135.00	 1029.13	 -496.37	  948.93
     26.8297	 1238.00	 1029.78	 -394.03	  949.54
     26.8798	 1303.00	 1030.44	 -329.69	  950.15
     26.9300	 1333.00	 1031.10	 -300.35	  950.76
     26.9801	 1344.00	 1031.77	 -290.01	  951.37
     27.0302	 1315.00	 1032.44	 -319.68	  951.98
     27.0804	 1353.00	 1033.10	 -282.35	  952.59
     27.1305	 1250.00	 1033.78	 -386.02	  953.20
     27.1806	 1184.00	 1034.45	 -452.69	  953.81
     27.2308	 1237.00	 1035.81	 -401.06	  955.10
     27.2809	 1202.00	 1037.25	 -437.49	  956.47
     27.3311	 1140.00	 1038.69	 -500.94	  957.83
     27.3812	 1141.00	 1040.14	 -501.38	  959.20
     27.4313	 1109.00	 1041.59	 -534.83	  960.56
     27.4815	 1119.00	 1043.04	 -526.28	  961.93
     27.5316	 1120.00	 1044.50	 -526.74	  963.29
     27.5817	 1086.00	 1045.96	 -562.21	  964.66
     27.6319	 1092.00	 1047.43	 -557.68	  966.02
     27.6820	 1054.00	 1048.91	 -597.15	  967.39
     27.7321	 1056.00	 1050.39	 -596.63	  968.76
     27.7823	 1016.00	 1051.88	 -638.12	  970.12
     27.8324	 1105.00	 1053.38	 -550.62	  971.49
     27.8825	 1155.00	 1054.88	 -502.13	  972.85
     27.9327	 1077.00	 1056.40	 -581.64	  974.22
     27.9828	 1046.00	 1057.92	 -614.17	  975.58
     28.0329	 1064.00	 1059.46	 -597.70	  976.95
     28.0831	 1051.00	 1061.01	 -612.25	  978.31
     28.1332	 1102.00	 1062.57	 -562.81	  979.68
     28.1833	 1084.00	 1064.14	 -582.38	  981.04
     28.2335	 1138.00	 1065.73	 -529.97	  982.41
     28.2836	 1097.00	 1067.34	 -572.58	  983.77
     28.3337	 1097.00	 1068.96	 -574.20	  985.14
     28.3839	 1094.00	 1070.61	 -578.85	  986.50
     28.4340	 1132.00	 1072.27	 -542.52	  987.87
     28.4841	 1132.00	 1073.97	 -544.21	  989.23
     28.5343	 1125.00	 1075.69	 -552.93	  990.60
     28.5844	 1065.00	 1077.44	 -614.69	  991.96
     28.6345	 1174.00	 1080.33	 -508.57	  994.42
     28.6847	 1075.00	 1085.34	 -612.59	  998.97
     28.7348	 1104.00	 1090.40	 -588.65	 1003.52
     28.7849	 1173.00	 1095.52	 -524.76	 1008.08
     28.8351	 1086.00	 1100.69	 -616.93	 1012.63
     28.8852	 1133.00	 1105.92	 -575.16	 1017.18
     28.9353	 1093.00	 1111.23	 -620.47	 1021.73
     28.9855	 1172.00	 1116.63	 -546.87	 1026.28
     29.0356	 1050.00	 1122.13	 -674.37	 1030.83
     29.0857	 1115.00	 1127.75	 -614.99	 1035.38
     29.1359	 1060.00	 1133.50	 -675.74	 1039.93
     29.1860	 1072.00	 1139.41	 -669.66	 1044.48
     29.2361	 1206.00	 1145.52	 -541.76	 1049.03
     29.2863	 1208.00	 1151.85	 -546.09	 1053.58
     29.3364	 1126.00	 1158.45	 -634.69	 1058.13
     29.3865	 1158.00	 1166.72	 -610.97	 1062.69
     29.4367	 1193.00	 1174.08	 -583.32	 1067.24
     29.4868	 1166.00	 1182.60	 -618.84	 1071.79
     29.5369	 1136.00	 1191.09	 -657.33	 1076.34
     29.5871	 1273.00	 1200.35	 -529.59	 1080.89
     29.6372	 1219.00	 1210.60	 -593.85	 1085.44
     29.6873	 1149.00	 1222.11	 -675.36	 1089.99
     29.7375	 1233.00	 1235.22	 -604.46	 1094.54
     29.7876	 1225.00	 1250.35	 -627.60	 1099.09
     29.8377	 1256.00	 1268.02	 -614.27	 1103.64
     29.8879	 1222.00	 1288.81	 -669.06	 1108.19
     29.9380	 1248.00	 1313.30	 -667.54	 1112.74
     29.9881	 1281.00	 1341.85	 -663.09	 1117.30
     30.0383	 1226.00	 1374.24	 -750.48	 1121.85
     30.0884	 1240.00	 1408.41	 -770.66	 1125.89
     30.1385	 1284.00	 1441.19	 -759.43	 1129.79
     30.1887	 1348.00	 1467.15	 -721.39	 1133.69
     30.2388	 1384.00	 1480.61	 -698.85	 1137.59
     30.2889	 1333.00	 1478.82	 -748.06	 1141.49
     30.3391	 1271.00	 1463.63	 -794.87	 1145.39
     30.3892	 1360.00	 1440.22	 -682.46	 1149.29
     30.4393	 1339.00	 1414.22	 -677.46	 1153.20
     30.4895	 1322.00	 1389.68	 -669.92	 1157.10
     30.5396	 1261.00	 1368.61	 -709.86	 1161.00
     30.5897	 1376.00	 1351.58	 -577.82	 1164.90
     30.6399	 1328.00	 1338.35	 -612.59	 1168.80
     30.6900	 1343.00	 1328.40	 -587.64	 1172.70
     30.7401	 1277.00	 1321.14	 -646.38	 1176.60
     30.7903	 1312.00	 1316.04	 -606.29	 1180.50
     30.8404	 1328.00	 1312.66	 -586.91	 1184.40
     30.8905	 1373.00	 1310.63	 -539.88	 1188.30
     30.9407	 1258.00	 1309.66	 -653.91	 1192.20
     30.9908	 1359.00	 1309.53	 -552.77	 1196.10
     31.0410	 1244.00	 1310.18	 -668.42	 1200.01
     31.0911	 1287.00	 1311.24	 -626.48	 1203.91
     31.1412	 1297.00	 1312.80	 -618.04	 1207.81
     31.1914	 1356.00	 1314.65	 -560.89	 1211.71
     31.2415	 1266.00	 1316.79	 -653.03	 1215.61
     31.2916	 1247.00	 1319.17	 -674.41	 1219.51
     31.3418	 1308.00	 1321.75	 -615.99	 1223.41
     31.3919	 1333.00	 1324.63	 -593.87	 1227.43
     31.4420	 1329.00	 1328.49	 -601.73	 1232.29
     31.4922	 1330.00	 1332.48	 -604.72	 1237.15
     31.5423	 1271.00	 1336.57	 -667.81	 1242.00
     31.5924	 1361.00	 1340.76	 -582.00	 1246.86
     31.6426	 1408.00	 1345.04	 -539.28	 1251.72
     31.6927	 1332.00	 1349.38	 -619.63	 1256.57
     31.7428	 1326.00	 1353.80	 -630.04	 1261.43
     31.7930	 1286.00	 1358.27	 -674.51	 1266.29
     31.8431	 1312.00	 1362.79	 -653.03	 1271.15
     31.8932	 1353.00	 1367.36	 -616.60	 1276.00
     31.9434	 1357.00	 1371.97	 -617.22	 1280.86
     31.9935	 1320.00	 1376.63	 -658.87	 1285.72
     32.0436	 1329.00	 1381.31	 -654.55	 1290.57
     32.0938	 1386.00	 1386.03	 -602.28	 1295.43
     32.1439	 1368.00	 1390.79	 -625.03	 1300.29
     32.1940	 1364.00	 1395.57	 -633.81	 1305.14
     32.2442	 1382.00	 1400.38	 -620.62	 1310.00
     32.2943	 1357.00	 1405.21	 -650.45	 1314.86
     32.3444	 1410.00	 1410.07	 -602.31	 1319.72
     32.3946	 1417.00	 1414.96	 -600.20	 1324.57
     32.4447	 1405.00	 1419.86	 -617.11	 1329.43
     32.4948	 1406.00	 1424.80	 -621.04	 1334.29
     32.5450	 1413.00	 1429.75	 -618.99	 1339.14
     32.5951	 1345.00	 1434.73	 -691.97	 1344.00
     32.6452	 1425.00	 1439.71	 -616.95	 1348.84
     32.6954	 1408.00	 1444.68	 -638.93	 1353.65
     32.7455	 1496.00	 1449.68	 -555.93	 1358.46
     32.7956	 1417.00	 1454.71	 -639.95	 1363.27
     32.8458	 1388.00	 1459.75	 -673.99	 1368.08
     32.8959	 1461.00	 1464.82	 -606.07	 1372.89
     32.9460	 1441.00	 1469.92	 -631.16	 1377.70
     32.9962	 1464.00	 1475.05	 -613.29	 1382.51
     33.0463	 1411.00	 1480.20	 -671.44	 1387.31
     33.0964	 1429.00	 1485.38	 -658.63	 1392.12
     33.1466	 1465.00	 1490.60	 -627.84	 1396.93
     33.1967	 1487.00	 1495.85	 -611.09	 1401.74
     33.2468	 1537.00	 1501.13	 -566.37	 1406.55
     33.2970	 1542.00	 1506.46	 -566.70	 1411.36
     33.3471	 1530.00	 1511.82	 -584.06	 1416.17
     33.3972	 1452.00	 1517.23	 -667.47	 1420.98
     33.4474	 1500.00	 1522.68	 -624.92	 1425.79
     33.4975	 1459.00	 1528.19	 -671.43	 1430.60
     33.5476	 1546.00	 1533.75	 -589.99	 1435.41
     33.5978	 1492.00	 1539.37	 -649.61	 1440.22
     33.6479	 1570.00	 1545.06	 -577.30	 1445.03
     33.6980	 1600.00	 1550.86	 -553.11	 1449.88
     33.7482	 1501.00	 1556.80	 -658.05	 1454.78
     33.7983	 1544.00	 1562.83	 -621.07	 1459.69
     33.8484	 1649.00	 1568.95	 -522.19	 1464.59
     33.8986	 1553.00	 1575.18	 -624.42	 1469.50
     33.9487	 1675.00	 1581.53	 -508.77	 1474.41
     33.9988	 1548.00	 1588.02	 -642.26	 1479.31
     34.0490	 1691.00	 1594.65	 -505.89	 1484.22
     34.0991	 1740.00	 1601.45	 -463.69	 1489.13
     34.1492	 1692.00	 1608.43	 -518.67	 1494.03
     34.1994	 1758.00	 1615.63	 -459.87	 1498.94
     34.2495	 1713.00	 1623.07	 -512.32	 1503.84
     34.2996	 1900.00	 1630.79	 -333.03	 1508.75
     34.3498	 1773.00	 1638.82	 -468.07	 1513.66
     34.3999	 1771.00	 1647.22	 -478.46	 1518.56
     34.4501	 1811.00	 1655.02	 -446.27	 1522.46
     34.5002	 1743.00	 1659.09	 -518.33	 1522.14
     34.5503	 1742.00	 1663.72	 -523.97	 1521.81
     34.6005	 1757.00	 1669.03	 -514.27	 1521.49
     34.6506	 1686.00	 1675.11	 -591.36	 1521.16
     34.7007	 1719.00	 1682.14	 -565.39	 1520.84
     34.7509	 1728.00	 1690.30	 -564.54	 1520.51
     34.8010	 1813.00	 1699.82	 -489.06	 1520.19
     34.8511	 1780.00	 1710.99	 -533.23	 1519.86
     34.9013	 1825.00	 1724.21	 -501.45	 1519.54
     34.9514	 1853.00	 1739.94	 -489.18	 1519.21
     35.0015	 1835.00	 1758.78	 -526.02	 1518.89
     35.0517	 1858.00	 1781.47	 -525.71	 1518.56
     35.1018	 1839.00	 1808.93	 -572.17	 1518.24
