! XYN file created by WinPLOTR
! Initial file:   C:\!Dane\XRD_Lukasz\2021\LFCS\Grupa03\Raw\Magnetyt_raw.xrdml
! Initial format:  13
! WAVE (A):      1.54060     1.54060     1.00000
! X_data : 2 Theta (deg.)                                                                                                                                                                                                                                                  
! Y_data : Intensity (arb. units)                                                                                                                                                                                                                                          
!--------------------------------------------------------------------------------
!            X_1 Magnetyt_raw.xr
        10.01671       203.00000
        10.05013       209.00000
        10.08356       210.00000
        10.11698       202.00000
        10.15040       199.00000
        10.18382       208.00000
        10.21725       206.00000
        10.25067       211.00000
        10.28409       199.00000
        10.31751       194.00000
        10.35094       190.00000
        10.38436       199.00000
        10.41778       199.00000
        10.45120       190.00000
        10.48463       182.00000
        10.51805       167.00000
        10.55147       186.00000
        10.58489       180.00000
        10.61832       186.00000
        10.65174       177.00000
        10.68516       176.00000
        10.71858       176.00000
        10.75201       186.00000
        10.78543       189.00000
        10.81885       199.00000
        10.85227       181.00000
        10.88570       162.00000
        10.91912       184.00000
        10.95254       163.00000
        10.98596       180.00000
        11.01939       159.00000
        11.05281       173.00000
        11.08623       184.00000
        11.11965       176.00000
        11.15308       188.00000
        11.18650       140.00000
        11.21992       169.00000
        11.25335       180.00000
        11.28677       148.00000
        11.32019       156.00000
        11.35361       184.00000
        11.38704       171.00000
        11.42046       178.00000
        11.45388       162.00000
        11.48730       155.00000
        11.52073       157.00000
        11.55415       130.00000
        11.58757       142.00000
        11.62099       170.00000
        11.65442       157.00000
        11.68784       153.00000
        11.72126       169.00000
        11.75468       146.00000
        11.78811       145.00000
        11.82153       161.00000
        11.85495       153.00000
        11.88837       146.00000
        11.92180       145.00000
        11.95522       148.00000
        11.98864       156.00000
        12.02206       161.00000
        12.05549       140.00000
        12.08891       172.00000
        12.12233       154.00000
        12.15575       142.00000
        12.18918       125.00000
        12.22260       140.00000
        12.25602       133.00000
        12.28944       153.00000
        12.32287       168.00000
        12.35629       144.00000
        12.38971       138.00000
        12.42313       132.00000
        12.45656       151.00000
        12.48998       115.00000
        12.52340       117.00000
        12.55682       124.00000
        12.59025       148.00000
        12.62367       138.00000
        12.65709       137.00000
        12.69051       151.00000
        12.72394       129.00000
        12.75736       144.00000
        12.79078       148.00000
        12.82420       124.00000
        12.85763       138.00000
        12.89105       119.00000
        12.92447       118.00000
        12.95789       115.00000
        12.99132       136.00000
        13.02474       133.00000
        13.05816       136.00000
        13.09158       128.00000
        13.12501       141.00000
        13.15843       132.00000
        13.19185       143.00000
        13.22528       110.00000
        13.25870       102.00000
        13.29212       143.00000
        13.32554       123.00000
        13.35896       127.00000
        13.39239       108.00000
        13.42581       123.00000
        13.45923       138.00000
        13.49265       112.00000
        13.52608       137.00000
        13.55950       115.00000
        13.59292       108.00000
        13.62635       123.00000
        13.65977       105.00000
        13.69319       119.00000
        13.72661       117.00000
        13.76004       114.00000
        13.79346       126.00000
        13.82688       126.00000
        13.86030       114.00000
        13.89373       136.00000
        13.92715       128.00000
        13.96057       101.00000
        13.99399       136.00000
        14.02742       129.00000
        14.06084       101.00000
        14.09426       117.00000
        14.12768       125.00000
        14.16111       106.00000
        14.19453       108.00000
        14.22795       109.00000
        14.26137        90.00000
        14.29480       119.00000
        14.32822       115.00000
        14.36164       122.00000
        14.39506       121.00000
        14.42849       103.00000
        14.46191       125.00000
        14.49533       111.00000
        14.52875       121.00000
        14.56218       112.00000
        14.59560       132.00000
        14.62902        87.00000
        14.66244       113.00000
        14.69587       118.00000
        14.72929       124.00000
        14.76271       154.00000
        14.79613       102.00000
        14.82956        90.00000
        14.86298       106.00000
        14.89640       110.00000
        14.92982       121.00000
        14.96325       115.00000
        14.99667       108.00000
        15.03009       137.00000
        15.06351       108.00000
        15.09694       115.00000
        15.13036       110.00000
        15.16378       109.00000
        15.19720        98.00000
        15.23063       113.00000
        15.26405       109.00000
        15.29747        95.00000
        15.33089       110.00000
        15.36432       112.00000
        15.39774       119.00000
        15.43116       130.00000
        15.46458       100.00000
        15.49801       117.00000
        15.53143        91.00000
        15.56485        99.00000
        15.59828       103.00000
        15.63170        91.00000
        15.66512        84.00000
        15.69854       104.00000
        15.73197        82.00000
        15.76539        91.00000
        15.79881        95.00000
        15.83223       111.00000
        15.86565       113.00000
        15.89908        92.00000
        15.93250        99.00000
        15.96592        85.00000
        15.99935        81.00000
        16.03277        79.00000
        16.06619       100.00000
        16.09961        92.00000
        16.13304        91.00000
        16.16646        75.00000
        16.19988        95.00000
        16.23330       118.00000
        16.26673       111.00000
        16.30015       100.00000
        16.33357        96.00000
        16.36699        99.00000
        16.40042        92.00000
        16.43384        91.00000
        16.46726       103.00000
        16.50068        88.00000
        16.53411        76.00000
        16.56753        99.00000
        16.60095        85.00000
        16.63437        88.00000
        16.66780        78.00000
        16.70122        94.00000
        16.73464        88.00000
        16.76806        84.00000
        16.80149        78.00000
        16.83491        83.00000
        16.86833        94.00000
        16.90175        97.00000
        16.93518        76.00000
        16.96860        79.00000
        17.00202        69.00000
        17.03544       102.00000
        17.06887        82.00000
        17.10229        82.00000
        17.13571        86.00000
        17.16913       100.00000
        17.20256        85.00000
        17.23598        96.00000
        17.26940        84.00000
        17.30282        73.00000
        17.33625        87.00000
        17.36967        94.00000
        17.40309        96.00000
        17.43651       105.00000
        17.46994        85.00000
        17.50336        85.00000
        17.53678        99.00000
        17.57020       111.00000
        17.60363        91.00000
        17.63705       100.00000
        17.67047        89.00000
        17.70390        83.00000
        17.73732        88.00000
        17.77074        92.00000
        17.80416        85.00000
        17.83759        87.00000
        17.87101        87.00000
        17.90443        77.00000
        17.93785       105.00000
        17.97128        90.00000
        18.00470        84.00000
        18.03812       100.00000
        18.07154        85.00000
        18.10497        96.00000
        18.13839        94.00000
        18.17181       108.00000
        18.20523       127.00000
        18.23866       170.00000
        18.27208       208.00000
        18.30550       222.00000
        18.33892       156.00000
        18.37234       132.00000
        18.40577        92.00000
        18.43919        90.00000
        18.47261        91.00000
        18.50603        91.00000
        18.53946        77.00000
        18.57288        84.00000
        18.60630        75.00000
        18.63973        74.00000
        18.67315        82.00000
        18.70657        77.00000
        18.73999        91.00000
        18.77342        68.00000
        18.80684        77.00000
        18.84026        87.00000
        18.87368        69.00000
        18.90711        76.00000
        18.94053        69.00000
        18.97395        92.00000
        19.00737        84.00000
        19.04080        73.00000
        19.07422        84.00000
        19.10764        73.00000
        19.14106        77.00000
        19.17449        79.00000
        19.20791        78.00000
        19.24133        88.00000
        19.27475        77.00000
        19.30818        65.00000
        19.34160        70.00000
        19.37502        86.00000
        19.40844        70.00000
        19.44187        73.00000
        19.47529        65.00000
        19.50871        64.00000
        19.54214        55.00000
        19.57556        71.00000
        19.60898        73.00000
        19.64240        72.00000
        19.67583        59.00000
        19.70925        60.00000
        19.74267        79.00000
        19.77609        76.00000
        19.80951        87.00000
        19.84294        60.00000
        19.87636        65.00000
        19.90978        90.00000
        19.94320        63.00000
        19.97663        65.00000
        20.01005        81.00000
        20.04347        65.00000
        20.07689        59.00000
        20.11032        68.00000
        20.14374        60.00000
        20.17716        64.00000
        20.21058        63.00000
        20.24401        72.00000
        20.27743        69.00000
        20.31085        57.00000
        20.34427        78.00000
        20.37770        59.00000
        20.41112        62.00000
        20.44454        47.00000
        20.47797        62.00000
        20.51139        76.00000
        20.54481        51.00000
        20.57823        52.00000
        20.61166        71.00000
        20.64508        65.00000
        20.67850        62.00000
        20.71192        59.00000
        20.74535        71.00000
        20.77877        59.00000
        20.81219        54.00000
        20.84561        58.00000
        20.87904        72.00000
        20.91246        48.00000
        20.94588        60.00000
        20.97930        76.00000
        21.01273        73.00000
        21.04615        47.00000
        21.07957        66.00000
        21.11299        52.00000
        21.14642        60.00000
        21.17984        61.00000
        21.21326        62.00000
        21.24668        64.00000
        21.28011        56.00000
        21.31353        65.00000
        21.34695        47.00000
        21.38037        71.00000
        21.41380        57.00000
        21.44722        58.00000
        21.48064        56.00000
        21.51406        62.00000
        21.54749        63.00000
        21.58091        63.00000
        21.61433        68.00000
        21.64775        61.00000
        21.68118        51.00000
        21.71460        54.00000
        21.74802        60.00000
        21.78144        50.00000
        21.81487        46.00000
        21.84829        64.00000
        21.88171        74.00000
        21.91513        45.00000
        21.94856        64.00000
        21.98198        54.00000
        22.01540        56.00000
        22.04882        47.00000
        22.08225        52.00000
        22.11567        49.00000
        22.14909        51.00000
        22.18251        50.00000
        22.21594        52.00000
        22.24936        52.00000
        22.28278        31.00000
        22.31620        55.00000
        22.34963        56.00000
        22.38305        55.00000
        22.41647        61.00000
        22.44990        50.00000
        22.48332        54.00000
        22.51674        48.00000
        22.55016        59.00000
        22.58359        61.00000
        22.61701        51.00000
        22.65043        59.00000
        22.68385        44.00000
        22.71728        55.00000
        22.75070        52.00000
        22.78412        46.00000
        22.81754        49.00000
        22.85097        56.00000
        22.88439        60.00000
        22.91781        50.00000
        22.95123        64.00000
        22.98466        51.00000
        23.01808        55.00000
        23.05150        39.00000
        23.08492        42.00000
        23.11835        37.00000
        23.15177        49.00000
        23.18519        51.00000
        23.21861        52.00000
        23.25204        50.00000
        23.28546        51.00000
        23.31888        52.00000
        23.35230        56.00000
        23.38573        55.00000
        23.41915        57.00000
        23.45257        52.00000
        23.48599        43.00000
        23.51942        36.00000
        23.55284        66.00000
        23.58626        59.00000
        23.61968        56.00000
        23.65311        43.00000
        23.68653        46.00000
        23.71995        49.00000
        23.75337        37.00000
        23.78680        41.00000
        23.82022        51.00000
        23.85364        42.00000
        23.88706        50.00000
        23.92049        52.00000
        23.95391        46.00000
        23.98733        39.00000
        24.02075        54.00000
        24.05418        42.00000
        24.08760        55.00000
        24.12102        44.00000
        24.15444        50.00000
        24.18787        44.00000
        24.22129        47.00000
        24.25471        50.00000
        24.28814        41.00000
        24.32156        42.00000
        24.35498        36.00000
        24.38840        45.00000
        24.42183        52.00000
        24.45525        54.00000
        24.48867        46.00000
        24.52209        49.00000
        24.55552        48.00000
        24.58894        48.00000
        24.62236        50.00000
        24.65578        47.00000
        24.68921        57.00000
        24.72263        50.00000
        24.75605        36.00000
        24.78947        52.00000
        24.82290        42.00000
        24.85632        44.00000
        24.88974        45.00000
        24.92316        42.00000
        24.95658        38.00000
        24.99001        48.00000
        25.02343        51.00000
        25.05685        46.00000
        25.09027        44.00000
        25.12370        37.00000
        25.15712        47.00000
        25.19054        38.00000
        25.22396        47.00000
        25.25739        55.00000
        25.29081        51.00000
        25.32423        43.00000
        25.35766        59.00000
        25.39108        45.00000
        25.42450        52.00000
        25.45792        43.00000
        25.49135        39.00000
        25.52477        38.00000
        25.55819        39.00000
        25.59161        43.00000
        25.62504        48.00000
        25.65846        41.00000
        25.69188        41.00000
        25.72530        32.00000
        25.75873        55.00000
        25.79215        35.00000
        25.82557        49.00000
        25.85899        47.00000
        25.89242        57.00000
        25.92584        45.00000
        25.95926        41.00000
        25.99268        35.00000
        26.02611        49.00000
        26.05953        42.00000
        26.09295        36.00000
        26.12637        45.00000
        26.15980        41.00000
        26.19322        44.00000
        26.22664        45.00000
        26.26007        39.00000
        26.29349        34.00000
        26.32691        57.00000
        26.36033        61.00000
        26.39375        39.00000
        26.42718        44.00000
        26.46060        47.00000
        26.49402        44.00000
        26.52744        32.00000
        26.56087        34.00000
        26.59429        41.00000
        26.62771        29.00000
        26.66113        35.00000
        26.69456        35.00000
        26.72798        44.00000
        26.76140        44.00000
        26.79482        34.00000
        26.82825        45.00000
        26.86167        44.00000
        26.89509        39.00000
        26.92851        38.00000
        26.96194        39.00000
        26.99536        43.00000
        27.02878        45.00000
        27.06220        32.00000
        27.09563        59.00000
        27.12905        47.00000
        27.16247        43.00000
        27.19590        37.00000
        27.22932        35.00000
        27.26274        39.00000
        27.29616        27.00000
        27.32959        46.00000
        27.36301        43.00000
        27.39643        45.00000
        27.42985        41.00000
        27.46328        44.00000
        27.49670        39.00000
        27.53012        32.00000
        27.56354        49.00000
        27.59697        36.00000
        27.63039        36.00000
        27.66381        41.00000
        27.69723        36.00000
        27.73066        42.00000
        27.76408        32.00000
        27.79750        42.00000
        27.83092        37.00000
        27.86435        46.00000
        27.89777        35.00000
        27.93119        38.00000
        27.96461        47.00000
        27.99804        51.00000
        28.03146        38.00000
        28.06488        37.00000
        28.09830        35.00000
        28.13173        39.00000
        28.16515        34.00000
        28.19857        36.00000
        28.23199        42.00000
        28.26542        38.00000
        28.29884        42.00000
        28.33226        28.00000
        28.36568        36.00000
        28.39911        34.00000
        28.43253        37.00000
        28.46595        36.00000
        28.49937        35.00000
        28.53280        44.00000
        28.56622        37.00000
        28.59964        47.00000
        28.63306        43.00000
        28.66649        38.00000
        28.69991        48.00000
        28.73333        65.00000
        28.76675        60.00000
        28.80018        57.00000
        28.83360        45.00000
        28.86702        46.00000
        28.90044        43.00000
        28.93387        36.00000
        28.96729        38.00000
        29.00071        46.00000
        29.03414        42.00000
        29.06756        48.00000
        29.10098        44.00000
        29.13440        31.00000
        29.16783        42.00000
        29.20125        35.00000
        29.23467        37.00000
        29.26809        47.00000
        29.30152        30.00000
        29.33494        35.00000
        29.36836        39.00000
