 Ni   Chi2:  2.8255  CELL:    3.52434   3.52434   3.52434   90.0000   90.0000   90.0000   SPGR: 225                    TEMP:      0.00
  1   3291     1.54060     1.54439     0.00000    -0.05259     0.00000    0
    16     0     1
       0.00000      35.00000
 2Theta	Yobs	Ycal	Yobs-Ycal	Backg	Posr	(hkl)	K
     20.0231	 1239.00	  563.60	-1863.75	  465.90
     20.0565	 1257.00	  563.60	-1863.75	  465.90
     20.0900	 1298.00	  563.60	-1863.75	  465.90
     20.1234	 1218.00	  563.60	-1863.75	  465.90
     20.1568	 1257.00	  563.60	-1863.75	  465.90
     20.1902	 1243.00	  563.60	-1863.75	  465.90
     20.2236	 1240.00	  563.60	-1863.75	  465.90
     20.2571	 1172.00	  563.60	-1863.75	  465.90
     20.2905	 1265.00	  563.60	-1863.75	  465.90
     20.3239	 1270.00	  563.60	-1863.75	  465.90
     20.3573	 1303.00	  563.60	-1863.75	  465.90
     20.3908	 1291.00	  563.60	-1863.75	  465.90
     20.4242	 1265.00	  563.60	-1863.75	  465.90
     20.4576	 1220.00	  563.60	-1863.75	  465.90
     20.4910	 1276.00	  563.60	-1863.75	  465.90
     20.5245	 1288.00	  563.60	-1863.75	  465.90
     20.5579	 1259.00	  563.60	-1863.75	  465.90
     20.5913	 1191.00	  563.60	-1863.75	  465.90
     20.6247	 1228.00	  563.60	-1863.75	  465.90
     20.6581	 1295.00	  563.60	-1863.75	  465.90
     20.6916	 1201.00	  563.60	-1863.75	  465.90
     20.7250	 1269.00	  563.60	-1863.75	  465.90
     20.7584	 1214.00	  563.60	-1863.75	  465.90
     20.7918	 1299.00	  563.60	-1863.75	  465.90
     20.8253	 1233.00	  563.60	-1863.75	  465.90
     20.8587	 1204.00	  563.60	-1863.75	  465.90
     20.8921	 1196.00	  563.60	-1863.75	  465.90
     20.9255	 1165.00	  563.60	-1863.75	  465.90
     20.9589	 1223.00	  563.60	-1863.75	  465.90
     20.9924	 1204.00	  563.60	-1863.75	  465.90
     21.0258	 1247.00	  563.60	-1863.75	  465.90
     21.0592	 1193.00	  563.60	-1863.75	  465.90
     21.0926	 1213.00	  563.60	-1863.75	  465.90
     21.1261	 1108.00	  563.60	-1863.75	  465.90
     21.1595	 1165.00	  563.60	-1863.75	  465.90
     21.1929	 1173.00	  563.60	-1863.75	  465.90
     21.2263	 1110.00	  563.60	-1863.75	  465.90
     21.2597	 1187.00	  563.60	-1863.75	  465.90
     21.2932	 1166.00	  563.60	-1863.75	  465.90
     21.3266	 1094.00	  563.60	-1863.75	  465.90
     21.3600	 1095.00	  563.60	-1863.75	  465.90
     21.3934	 1202.00	  563.60	-1863.75	  465.90
     21.4269	 1118.00	  563.60	-1863.75	  465.90
     21.4603	 1104.00	  563.60	-1863.75	  465.90
     21.4937	 1146.00	  563.60	-1863.75	  465.90
     21.5271	 1101.00	  563.60	-1863.75	  465.90
     21.5605	 1139.00	  563.60	-1863.75	  465.90
     21.5940	 1121.00	  563.60	-1863.75	  465.90
     21.6274	 1097.00	  563.60	-1863.75	  465.90
     21.6608	 1089.00	  563.60	-1863.75	  465.90
     21.6942	 1149.00	  563.60	-1863.75	  465.90
     21.7277	 1041.00	  563.60	-1863.75	  465.90
     21.7611	 1026.00	  563.60	-1863.75	  465.90
     21.7945	 1118.00	  563.60	-1863.75	  465.90
     21.8279	 1075.00	  563.60	-1863.75	  465.90
     21.8614	 1145.00	  563.60	-1863.75	  465.90
     21.8948	 1026.00	  563.60	-1863.75	  465.90
     21.9282	 1076.00	  563.60	-1863.75	  465.90
     21.9616	 1051.00	  563.60	-1863.75	  465.90
     21.9950	 1084.00	  563.60	-1863.75	  465.90
     22.0285	 1065.00	  563.60	-1863.75	  465.90
     22.0619	 1083.00	  563.60	-1863.75	  465.90
     22.0953	  966.00	  563.60	-1863.75	  465.90
     22.1287	 1038.00	  563.60	-1863.75	  465.90
     22.1622	 1114.00	  563.60	-1863.75	  465.90
     22.1956	 1059.00	  563.60	-1863.75	  465.90
     22.2290	 1077.00	  563.60	-1863.75	  465.90
     22.2624	 1011.00	  563.60	-1863.75	  465.90
     22.2958	  974.00	  563.60	-1863.75	  465.90
     22.3293	  961.00	  563.60	-1863.75	  465.90
     22.3627	  967.00	  563.60	-1863.75	  465.90
     22.3961	  980.00	  563.60	-1863.75	  465.90
     22.4295	  971.00	  563.60	-1863.75	  465.90
     22.4630	  911.00	  563.60	-1863.75	  465.90
     22.4964	  995.00	  563.60	-1863.75	  465.90
     22.5298	 1010.00	  563.60	-1863.75	  465.90
     22.5632	  962.00	  563.60	-1863.75	  465.90
     22.5966	  991.00	  563.60	-1863.75	  465.90
     22.6301	  969.00	  563.60	-1863.75	  465.90
     22.6635	  967.00	  563.60	-1863.75	  465.90
     22.6969	  960.00	  563.60	-1863.75	  465.90
     22.7303	  979.00	  563.60	-1863.75	  465.90
     22.7638	  949.00	  563.60	-1863.75	  465.90
     22.7972	  963.00	  563.60	-1863.75	  465.90
     22.8306	  929.00	  563.60	-1863.75	  465.90
     22.8640	  895.00	  563.60	-1863.75	  465.90
     22.8974	  942.00	  563.60	-1863.75	  465.90
     22.9309	  894.00	  563.60	-1863.75	  465.90
     22.9643	  867.00	  563.60	-1863.75	  465.90
     22.9977	  895.00	  563.60	-1863.75	  465.90
     23.0311	  949.00	  563.60	-1863.75	  465.90
     23.0646	  908.00	  563.60	-1863.75	  465.90
     23.0980	  931.00	  563.60	-1863.75	  465.90
     23.1314	  901.00	  563.60	-1863.75	  465.90
     23.1648	  843.00	  563.60	-1863.75	  465.90
     23.1983	  913.00	  563.60	-1863.75	  465.90
     23.2317	  851.00	  563.60	-1863.75	  465.90
     23.2651	  910.00	  563.60	-1863.75	  465.90
     23.2985	  888.00	  563.60	-1863.75	  465.90
     23.3319	  918.00	  563.60	-1863.75	  465.90
     23.3654	  884.00	  563.60	-1863.75	  465.90
     23.3988	  920.00	  563.60	-1863.75	  465.90
     23.4322	  873.00	  563.60	-1863.75	  465.90
     23.4656	  878.00	  563.60	-1863.75	  465.90
     23.4991	  914.00	  563.60	-1863.75	  465.90
     23.5325	  878.00	  563.60	-1863.75	  465.90
     23.5659	  893.00	  563.60	-1863.75	  465.90
     23.5993	  891.00	  563.60	-1863.75	  465.90
     23.6327	  809.00	  563.60	-1863.75	  465.90
     23.6662	  766.00	  563.60	-1863.75	  465.90
     23.6996	  851.00	  563.60	-1863.75	  465.90
     23.7330	  871.00	  563.60	-1863.75	  465.90
     23.7664	  884.00	  563.60	-1863.75	  465.90
     23.7999	  848.00	  563.60	-1863.75	  465.90
     23.8333	  869.00	  563.60	-1863.75	  465.90
     23.8667	  807.00	  563.60	-1863.75	  465.90
     23.9001	  855.00	  563.60	-1863.75	  465.90
     23.9335	  816.00	  563.60	-1863.75	  465.90
     23.9670	  822.00	  563.60	-1863.75	  465.90
     24.0004	  797.00	  563.60	-1863.75	  465.90
     24.0338	  795.00	  563.60	-1863.75	  465.90
     24.0672	  768.00	  563.60	-1863.75	  465.90
     24.1007	  828.00	  563.60	-1863.75	  465.90
     24.1341	  796.00	  563.60	-1863.75	  465.90
     24.1675	  784.00	  563.60	-1863.75	  465.90
     24.2009	  821.00	  563.60	-1863.75	  465.90
     24.2344	  811.00	  563.60	-1863.75	  465.90
     24.2678	  761.00	  563.60	-1863.75	  465.90
     24.3012	  851.00	  563.60	-1863.75	  465.90
     24.3346	  777.00	  563.60	-1863.75	  465.90
     24.3680	  771.00	  563.60	-1863.75	  465.90
     24.4015	  816.00	  563.60	-1863.75	  465.90
     24.4349	  826.00	  563.60	-1863.75	  465.90
     24.4683	  754.00	  563.60	-1863.75	  465.90
     24.5017	  726.00	  563.60	-1863.75	  465.90
     24.5352	  786.00	  563.60	-1863.75	  465.90
     24.5686	  810.00	  563.60	-1863.75	  465.90
     24.6020	  776.00	  563.60	-1863.75	  465.90
     24.6354	  783.00	  563.60	-1863.75	  465.90
     24.6688	  792.00	  563.60	-1863.75	  465.90
     24.7023	  742.00	  563.60	-1863.75	  465.90
     24.7357	  752.00	  563.60	-1863.75	  465.90
     24.7691	  788.00	  563.60	-1863.75	  465.90
     24.8025	  778.00	  563.60	-1863.75	  465.90
     24.8360	  752.00	  563.60	-1863.75	  465.90
     24.8694	  743.00	  563.60	-1863.75	  465.90
     24.9028	  725.00	  563.60	-1863.75	  465.90
     24.9362	  740.00	  563.60	-1863.75	  465.90
     24.9696	  745.00	  563.60	-1863.75	  465.90
     25.0031	  705.00	  563.60	-1863.75	  465.90
     25.0365	  792.00	  563.60	-1863.75	  465.90
     25.0699	  730.00	  563.60	-1863.75	  465.90
     25.1033	  727.00	  563.60	-1863.75	  465.90
     25.1368	  686.00	  563.60	-1863.75	  465.90
     25.1702	  760.00	  563.60	-1863.75	  465.90
     25.2036	  695.00	  563.60	-1863.75	  465.90
     25.2370	  746.00	  563.60	-1863.75	  465.90
     25.2705	  724.00	  563.60	-1863.75	  465.90
     25.3039	  723.00	  563.60	-1863.75	  465.90
     25.3373	  691.00	  563.60	-1863.75	  465.90
     25.3707	  729.00	  563.60	-1863.75	  465.90
     25.4041	  682.00	  563.60	-1863.75	  465.90
     25.4376	  714.00	  563.60	-1863.75	  465.90
     25.4710	  726.00	  563.60	-1863.75	  465.90
     25.5044	  730.00	  563.60	-1863.75	  465.90
     25.5378	  729.00	  563.60	-1863.75	  465.90
     25.5713	  701.00	  563.60	-1863.75	  465.90
     25.6047	  693.00	  563.60	-1863.75	  465.90
     25.6381	  703.00	  563.60	-1863.75	  465.90
     25.6715	  686.00	  563.60	-1863.75	  465.90
     25.7049	  691.00	  563.60	-1863.75	  465.90
     25.7384	  703.00	  563.60	-1863.75	  465.90
     25.7718	  705.00	  563.60	-1863.75	  465.90
     25.8052	  722.00	  563.60	-1863.75	  465.90
     25.8386	  658.00	  563.60	-1863.75	  465.90
     25.8721	  768.00	  563.60	-1863.75	  465.90
     25.9055	  735.00	  563.60	-1863.75	  465.90
     25.9389	  709.00	  563.60	-1863.75	  465.90
     25.9723	  670.00	  563.60	-1863.75	  465.90
     26.0057	  658.00	  563.60	-1863.75	  465.90
     26.0392	  697.00	  563.60	-1863.75	  465.90
     26.0726	  677.00	  563.60	-1863.75	  465.90
     26.1060	  666.00	  563.60	-1863.75	  465.90
     26.1394	  686.00	  563.60	-1863.75	  465.90
     26.1729	  664.00	  563.60	-1863.75	  465.90
     26.2063	  658.00	  563.60	-1863.75	  465.90
     26.2397	  701.00	  563.60	-1863.75	  465.90
     26.2731	  660.00	  563.60	-1863.75	  465.90
     26.3065	  629.00	  563.60	-1863.75	  465.90
     26.3400	  633.00	  563.60	-1863.75	  465.90
     26.3734	  665.00	  563.60	-1863.75	  465.90
     26.4068	  677.00	  563.60	-1863.75	  465.90
     26.4402	  688.00	  563.60	-1863.75	  465.90
     26.4737	  667.00	  563.60	-1863.75	  465.90
     26.5071	  631.00	  563.60	-1863.75	  465.90
     26.5405	  661.00	  563.60	-1863.75	  465.90
     26.5739	  663.00	  563.60	-1863.75	  465.90
     26.6074	  668.00	  563.60	-1863.75	  465.90
     26.6408	  695.00	  563.60	-1863.75	  465.90
     26.6742	  672.00	  563.60	-1863.75	  465.90
     26.7076	  635.00	  563.60	-1863.75	  465.90
     26.7410	  662.00	  563.60	-1863.75	  465.90
     26.7745	  621.00	  563.60	-1863.75	  465.90
     26.8079	  643.00	  563.60	-1863.75	  465.90
     26.8413	  644.00	  563.60	-1863.75	  465.90
     26.8747	  691.00	  563.60	-1863.75	  465.90
     26.9082	  694.00	  563.60	-1863.75	  465.90
     26.9416	  680.00	  563.60	-1863.75	  465.90
     26.9750	  595.00	  563.60	-1863.75	  465.90
     27.0084	  643.00	  563.60	-1863.75	  465.90
     27.0418	  682.00	  563.60	-1863.75	  465.90
     27.0753	  656.00	  563.60	-1863.75	  465.90
     27.1087	  594.00	  563.60	-1863.75	  465.90
     27.1421	  609.00	  563.60	-1863.75	  465.90
     27.1755	  617.00	  563.60	-1863.75	  465.90
     27.2090	  636.00	  563.60	-1863.75	  465.90
     27.2424	  649.00	  563.60	-1863.75	  465.90
     27.2758	  651.00	  563.60	-1863.75	  465.90
     27.3092	  615.00	  563.60	-1863.75	  465.90
     27.3426	  604.00	  563.60	-1863.75	  465.90
     27.3761	  631.00	  563.60	-1863.75	  465.90
     27.4095	  692.00	  563.60	-1863.75	  465.90
     27.4429	  621.00	  563.60	-1863.75	  465.90
     27.4763	  677.00	  563.60	-1863.75	  465.90
     27.5098	  614.00	  563.60	-1863.75	  465.90
     27.5432	  605.00	  563.60	-1863.75	  465.90
     27.5766	  630.00	  563.60	-1863.75	  465.90
     27.6100	  613.00	  563.60	-1863.75	  465.90
     27.6434	  610.00	  563.60	-1863.75	  465.90
     27.6769	  633.00	  563.60	-1863.75	  465.90
     27.7103	  601.00	  563.60	-1863.75	  465.90
     27.7437	  680.00	  563.60	-1863.75	  465.90
     27.7771	  687.00	  563.60	-1863.75	  465.90
     27.8106	  684.00	  563.60	-1863.75	  465.90
     27.8440	  622.00	  563.60	-1863.75	  465.90
     27.8774	  623.00	  563.60	-1863.75	  465.90
     27.9108	  624.00	  563.60	-1863.75	  465.90
     27.9443	  637.00	  563.60	-1863.75	  465.90
     27.9777	  617.00	  563.60	-1863.75	  465.90
     28.0111	  653.00	  563.60	-1863.75	  465.90
     28.0445	  575.00	  563.60	-1863.75	  465.90
     28.0779	  642.00	  563.60	-1863.75	  465.90
     28.1114	  629.00	  563.60	-1863.75	  465.90
     28.1448	  606.00	  563.60	-1863.75	  465.90
     28.1782	  624.00	  563.60	-1863.75	  465.90
     28.2116	  605.00	  563.60	-1863.75	  465.90
     28.2451	  581.00	  563.60	-1863.75	  465.90
     28.2785	  586.00	  563.60	-1863.75	  465.90
     28.3119	  629.00	  563.60	-1863.75	  465.90
     28.3453	  635.00	  563.60	-1863.75	  465.90
     28.3787	  640.00	  563.60	-1863.75	  465.90
     28.4122	  600.00	  563.60	-1863.75	  465.90
     28.4456	  583.00	  563.60	-1863.75	  465.90
     28.4790	  631.00	  563.60	-1863.75	  465.90
     28.5124	  559.00	  563.60	-1863.75	  465.90
     28.5459	  616.00	  563.60	-1863.75	  465.90
     28.5793	  646.00	  563.60	-1863.75	  465.90
     28.6127	  580.00	  563.60	-1863.75	  465.90
     28.6461	  629.00	  563.60	-1863.75	  465.90
     28.6795	  640.00	  563.60	-1863.75	  465.90
     28.7130	  619.00	  563.60	-1863.75	  465.90
     28.7464	  577.00	  563.60	-1863.75	  465.90
     28.7798	  635.00	  563.60	-1863.75	  465.90
     28.8132	  593.00	  563.60	-1863.75	  465.90
     28.8467	  617.00	  563.60	-1863.75	  465.90
     28.8801	  550.00	  563.60	-1863.75	  465.90
     28.9135	  590.00	  563.60	-1863.75	  465.90
     28.9469	  593.00	  563.60	-1863.75	  465.90
     28.9804	  616.00	  563.60	-1863.75	  465.90
     29.0138	  634.00	  563.60	-1863.75	  465.90
     29.0472	  611.00	  563.60	-1863.75	  465.90
     29.0806	  626.00	  563.60	-1863.75	  465.90
     29.1140	  631.00	  563.60	-1863.75	  465.90
     29.1475	  608.00	  563.60	-1863.75	  465.90
     29.1809	  623.00	  563.60	-1863.75	  465.90
     29.2143	  626.00	  563.60	-1863.75	  465.90
     29.2477	  641.00	  563.60	-1863.75	  465.90
     29.2812	  568.00	  563.60	-1863.75	  465.90
     29.3146	  617.00	  563.60	-1863.75	  465.90
     29.3480	  629.00	  563.60	-1863.75	  465.90
     29.3814	  588.00	  563.60	-1863.75	  465.90
     29.4148	  629.00	  563.60	-1863.75	  465.90
     29.4483	  603.00	  563.60	-1863.75	  465.90
     29.4817	  599.00	  563.60	-1863.75	  465.90
     29.5151	  619.00	  563.60	-1863.75	  465.90
     29.5485	  580.00	  563.60	-1863.75	  465.90
     29.5820	  532.00	  563.60	-1863.75	  465.90
     29.6154	  551.00	  563.60	-1863.75	  465.90
     29.6488	  604.00	  563.60	-1863.75	  465.90
     29.6822	  611.00	  563.60	-1863.75	  465.90
     29.7156	  612.00	  563.60	-1863.75	  465.90
     29.7491	  540.00	  563.60	-1863.75	  465.90
     29.7825	  574.00	  563.60	-1863.75	  465.90
     29.8159	  582.00	  563.60	-1863.75	  465.90
     29.8493	  590.00	  563.60	-1863.75	  465.90
     29.8828	  565.00	  563.60	-1863.75	  465.90
     29.9162	  590.00	  563.60	-1863.75	  465.90
     29.9496	  612.00	  563.60	-1863.75	  465.90
     29.9830	  583.00	  563.60	-1863.75	  465.90
     30.0164	  534.00	  563.60	-1863.75	  465.90
     30.0499	  537.00	  563.60	-1863.75	  465.90
     30.0833	  651.00	  563.60	-1863.75	  465.90
     30.1167	  561.00	  563.60	-1863.75	  465.90
     30.1501	  612.00	  563.60	-1863.75	  465.90
     30.1836	  591.00	  563.60	-1863.75	  465.90
     30.2170	  563.00	  563.60	-1863.75	  465.90
     30.2504	  564.00	  563.60	-1863.75	  465.90
     30.2838	  550.00	  563.60	-1863.75	  465.90
     30.3173	  544.00	  563.60	-1863.75	  465.90
     30.3507	  599.00	  563.60	-1863.75	  465.90
     30.3841	  590.00	  563.60	-1863.75	  465.90
     30.4175	  583.00	  563.60	-1863.75	  465.90
     30.4509	  572.00	  563.60	-1863.75	  465.90
     30.4844	  578.00	  563.60	-1863.75	  465.90
     30.5178	  615.00	  563.60	-1863.75	  465.90
     30.5512	  570.00	  563.60	-1863.75	  465.90
     30.5846	  589.00	  563.60	-1863.75	  465.90
     30.6181	  602.00	  563.60	-1863.75	  465.90
     30.6515	  579.00	  563.60	-1863.75	  465.90
     30.6849	  604.00	  563.60	-1863.75	  465.90
     30.7183	  579.00	  563.60	-1863.75	  465.90
     30.7517	  584.00	  563.60	-1863.75	  465.90
     30.7852	  571.00	  563.60	-1863.75	  465.90
     30.8186	  584.00	  563.60	-1863.75	  465.90
     30.8520	  572.00	  563.60	-1863.75	  465.90
     30.8854	  602.00	  563.60	-1863.75	  465.90
     30.9189	  582.00	  563.60	-1863.75	  465.90
     30.9523	  551.00	  563.60	-1863.75	  465.90
     30.9857	  574.00	  563.60	-1863.75	  465.90
     31.0191	  560.00	  563.60	-1863.75	  465.90
     31.0525	  544.00	  563.60	-1863.75	  465.90
     31.0860	  554.00	  563.60	-1863.75	  465.90
     31.1194	  539.00	  563.60	-1863.75	  465.90
     31.1528	  594.00	  563.60	-1863.75	  465.90
     31.1862	  637.00	  563.60	-1863.75	  465.90
     31.2197	  560.00	  563.60	-1863.75	  465.90
     31.2531	  592.00	  563.60	-1863.75	  465.90
     31.2865	  636.00	  563.60	-1863.75	  465.90
     31.3199	  582.00	  563.60	-1863.75	  465.90
     31.3534	  570.00	  563.60	-1863.75	  465.90
     31.3868	  551.00	  563.60	-1863.75	  465.90
     31.4202	  586.00	  563.60	-1863.75	  465.90
     31.4536	  532.00	  563.60	-1863.75	  465.90
     31.4870	  539.00	  563.60	-1863.75	  465.90
     31.5205	  604.00	  563.60	-1863.75	  465.90
     31.5539	  563.00	  563.60	-1863.75	  465.90
     31.5873	  534.00	  563.60	-1863.75	  465.90
     31.6207	  584.00	  563.60	-1863.75	  465.90
     31.6542	  620.00	  563.60	-1863.75	  465.90
     31.6876	  567.00	  563.60	-1863.75	  465.90
     31.7210	  575.00	  563.60	-1863.75	  465.90
     31.7544	  594.00	  563.60	-1863.75	  465.90
     31.7878	  539.00	  563.60	-1863.75	  465.90
     31.8213	  591.00	  563.60	-1863.75	  465.90
     31.8547	  559.00	  563.60	-1863.75	  465.90
     31.8881	  547.00	  563.60	-1863.75	  465.90
     31.9215	  520.00	  563.60	-1863.75	  465.90
     31.9550	  561.00	  563.60	-1863.75	  465.90
     31.9884	  561.00	  563.60	-1863.75	  465.90
     32.0218	  602.00	  563.60	-1863.75	  465.90
     32.0552	  564.00	  563.60	-1863.75	  465.90
     32.0886	  592.00	  563.60	-1863.75	  465.90
     32.1221	  590.00	  563.60	-1863.75	  465.90
     32.1555	  551.00	  563.60	-1863.75	  465.90
     32.1889	  560.00	  563.60	-1863.75	  465.90
     32.2223	  580.00	  563.60	-1863.75	  465.90
     32.2558	  560.00	  563.60	-1863.75	  465.90
     32.2892	  542.00	  563.60	-1863.75	  465.90
     32.3226	  537.00	  563.60	-1863.75	  465.90
     32.3560	  567.00	  563.60	-1863.75	  465.90
     32.3895	  572.00	  563.60	-1863.75	  465.90
     32.4229	  546.00	  563.60	-1863.75	  465.90
     32.4563	  559.00	  563.60	-1863.75	  465.90
     32.4897	  578.00	  563.60	-1863.75	  465.90
     32.5231	  561.00	  563.60	-1863.75	  465.90
     32.5566	  555.00	  563.60	-1863.75	  465.90
     32.5900	  603.00	  563.60	-1863.75	  465.90
     32.6234	  591.00	  563.60	-1863.75	  465.90
     32.6568	  569.00	  563.60	-1863.75	  465.90
     32.6903	  602.00	  563.60	-1863.75	  465.90
     32.7237	  573.00	  563.60	-1863.75	  465.90
     32.7571	  542.00	  563.60	-1863.75	  465.90
     32.7905	  549.00	  563.60	-1863.75	  465.90
     32.8239	  558.00	  563.60	-1863.75	  465.90
     32.8574	  567.00	  563.60	-1863.75	  465.90
     32.8908	  557.00	  563.60	-1863.75	  465.90
     32.9242	  550.00	  563.60	-1863.75	  465.90
     32.9576	  602.00	  563.60	-1863.75	  465.90
     32.9911	  548.00	  563.60	-1863.75	  465.90
     33.0245	  595.00	  563.60	-1863.75	  465.90
     33.0579	  550.00	  563.60	-1863.75	  465.90
     33.0913	  563.00	  563.60	-1863.75	  465.90
     33.1247	  511.00	  563.60	-1863.75	  465.90
     33.1582	  580.00	  563.60	-1863.75	  465.90
     33.1916	  569.00	  563.60	-1863.75	  465.90
     33.2250	  562.00	  563.60	-1863.75	  465.90
     33.2584	  518.00	  563.60	-1863.75	  465.90
     33.2919	  539.00	  563.60	-1863.75	  465.90
     33.3253	  583.00	  563.60	-1863.75	  465.90
     33.3587	  547.00	  563.60	-1863.75	  465.90
     33.3921	  577.00	  563.60	-1863.75	  465.90
