 Ni   Chi2:  1.6172  CELL:    3.52482   3.52482   3.52482   90.0000   90.0000   90.0000   SPGR: 225                    TEMP:      0.00
  1   2992     1.54060     1.54439     0.00000    -0.01307     0.00000    0
    13     0     1
       0.00000      35.00000
 2Theta	Yobs	Ycal	Yobs-Ycal	Backg	Posr	(hkl)	K
     20.0165	  737.00	  444.99	-1422.75	  380.03
     20.0499	  752.00	  444.99	-1422.75	  380.03
     20.0834	  745.00	  444.99	-1422.75	  380.03
     20.1168	  791.00	  444.99	-1422.75	  380.03
     20.1502	  774.00	  444.99	-1422.75	  380.03
     20.1836	  756.00	  444.99	-1422.75	  380.03
     20.2170	  750.00	  444.99	-1422.75	  380.03
     20.2505	  769.00	  444.99	-1422.75	  380.03
     20.2839	  706.00	  444.99	-1422.75	  380.03
     20.3173	  740.00	  444.99	-1422.75	  380.03
     20.3507	  812.00	  444.99	-1422.75	  380.03
     20.3842	  727.00	  444.99	-1422.75	  380.03
     20.4176	  738.00	  444.99	-1422.75	  380.03
     20.4510	  749.00	  444.99	-1422.75	  380.03
     20.4844	  799.00	  444.99	-1422.75	  380.03
     20.5179	  684.00	  444.99	-1422.75	  380.03
     20.5513	  738.00	  444.99	-1422.75	  380.03
     20.5847	  737.00	  444.99	-1422.75	  380.03
     20.6181	  775.00	  444.99	-1422.75	  380.03
     20.6515	  715.00	  444.99	-1422.75	  380.03
     20.6850	  807.00	  444.99	-1422.75	  380.03
     20.7184	  736.00	  444.99	-1422.75	  380.03
     20.7518	  713.00	  444.99	-1422.75	  380.03
     20.7852	  740.00	  444.99	-1422.75	  380.03
     20.8187	  739.00	  444.99	-1422.75	  380.03
     20.8521	  706.00	  444.99	-1422.75	  380.03
     20.8855	  719.00	  444.99	-1422.75	  380.03
     20.9189	  740.00	  444.99	-1422.75	  380.03
     20.9523	  734.00	  444.99	-1422.75	  380.03
     20.9858	  726.00	  444.99	-1422.75	  380.03
     21.0192	  686.00	  444.99	-1422.75	  380.03
     21.0526	  794.00	  444.99	-1422.75	  380.03
     21.0860	  720.00	  444.99	-1422.75	  380.03
     21.1195	  716.00	  444.99	-1422.75	  380.03
     21.1529	  719.00	  444.99	-1422.75	  380.03
     21.1863	  729.00	  444.99	-1422.75	  380.03
     21.2197	  698.00	  444.99	-1422.75	  380.03
     21.2531	  697.00	  444.99	-1422.75	  380.03
     21.2866	  722.00	  444.99	-1422.75	  380.03
     21.3200	  712.00	  444.99	-1422.75	  380.03
     21.3534	  729.00	  444.99	-1422.75	  380.03
     21.3868	  685.00	  444.99	-1422.75	  380.03
     21.4203	  747.00	  444.99	-1422.75	  380.03
     21.4537	  667.00	  444.99	-1422.75	  380.03
     21.4871	  687.00	  444.99	-1422.75	  380.03
     21.5205	  712.00	  444.99	-1422.75	  380.03
     21.5539	  706.00	  444.99	-1422.75	  380.03
     21.5874	  666.00	  444.99	-1422.75	  380.03
     21.6208	  677.00	  444.99	-1422.75	  380.03
     21.6542	  701.00	  444.99	-1422.75	  380.03
     21.6876	  635.00	  444.99	-1422.75	  380.03
     21.7211	  727.00	  444.99	-1422.75	  380.03
     21.7545	  691.00	  444.99	-1422.75	  380.03
     21.7879	  719.00	  444.99	-1422.75	  380.03
     21.8213	  701.00	  444.99	-1422.75	  380.03
     21.8548	  694.00	  444.99	-1422.75	  380.03
     21.8882	  665.00	  444.99	-1422.75	  380.03
     21.9216	  711.00	  444.99	-1422.75	  380.03
     21.9550	  646.00	  444.99	-1422.75	  380.03
     21.9884	  614.00	  444.99	-1422.75	  380.03
     22.0219	  686.00	  444.99	-1422.75	  380.03
     22.0553	  661.00	  444.99	-1422.75	  380.03
     22.0887	  662.00	  444.99	-1422.75	  380.03
     22.1221	  660.00	  444.99	-1422.75	  380.03
     22.1556	  644.00	  444.99	-1422.75	  380.03
     22.1890	  610.00	  444.99	-1422.75	  380.03
     22.2224	  637.00	  444.99	-1422.75	  380.03
     22.2558	  622.00	  444.99	-1422.75	  380.03
     22.2892	  650.00	  444.99	-1422.75	  380.03
     22.3227	  635.00	  444.99	-1422.75	  380.03
     22.3561	  602.00	  444.99	-1422.75	  380.03
     22.3895	  635.00	  444.99	-1422.75	  380.03
     22.4229	  663.00	  444.99	-1422.75	  380.03
     22.4564	  647.00	  444.99	-1422.75	  380.03
     22.4898	  635.00	  444.99	-1422.75	  380.03
     22.5232	  701.00	  444.99	-1422.75	  380.03
     22.5566	  609.00	  444.99	-1422.75	  380.03
     22.5900	  614.00	  444.99	-1422.75	  380.03
     22.6235	  604.00	  444.99	-1422.75	  380.03
     22.6569	  634.00	  444.99	-1422.75	  380.03
     22.6903	  589.00	  444.99	-1422.75	  380.03
     22.7237	  590.00	  444.99	-1422.75	  380.03
     22.7572	  622.00	  444.99	-1422.75	  380.03
     22.7906	  606.00	  444.99	-1422.75	  380.03
     22.8240	  578.00	  444.99	-1422.75	  380.03
     22.8574	  598.00	  444.99	-1422.75	  380.03
     22.8909	  661.00	  444.99	-1422.75	  380.03
     22.9243	  567.00	  444.99	-1422.75	  380.03
     22.9577	  585.00	  444.99	-1422.75	  380.03
     22.9911	  614.00	  444.99	-1422.75	  380.03
     23.0245	  615.00	  444.99	-1422.75	  380.03
     23.0580	  594.00	  444.99	-1422.75	  380.03
     23.0914	  586.00	  444.99	-1422.75	  380.03
     23.1248	  571.00	  444.99	-1422.75	  380.03
     23.1582	  543.00	  444.99	-1422.75	  380.03
     23.1917	  568.00	  444.99	-1422.75	  380.03
     23.2251	  608.00	  444.99	-1422.75	  380.03
     23.2585	  591.00	  444.99	-1422.75	  380.03
     23.2919	  580.00	  444.99	-1422.75	  380.03
     23.3253	  530.00	  444.99	-1422.75	  380.03
     23.3588	  593.00	  444.99	-1422.75	  380.03
     23.3922	  521.00	  444.99	-1422.75	  380.03
     23.4256	  625.00	  444.99	-1422.75	  380.03
     23.4590	  559.00	  444.99	-1422.75	  380.03
     23.4925	  559.00	  444.99	-1422.75	  380.03
     23.5259	  565.00	  444.99	-1422.75	  380.03
     23.5593	  526.00	  444.99	-1422.75	  380.03
     23.5927	  548.00	  444.99	-1422.75	  380.03
     23.6261	  543.00	  444.99	-1422.75	  380.03
     23.6596	  559.00	  444.99	-1422.75	  380.03
     23.6930	  537.00	  444.99	-1422.75	  380.03
     23.7264	  540.00	  444.99	-1422.75	  380.03
     23.7598	  581.00	  444.99	-1422.75	  380.03
     23.7933	  580.00	  444.99	-1422.75	  380.03
     23.8267	  557.00	  444.99	-1422.75	  380.03
     23.8601	  528.00	  444.99	-1422.75	  380.03
     23.8935	  555.00	  444.99	-1422.75	  380.03
     23.9269	  532.00	  444.99	-1422.75	  380.03
     23.9604	  558.00	  444.99	-1422.75	  380.03
     23.9938	  528.00	  444.99	-1422.75	  380.03
     24.0272	  543.00	  444.99	-1422.75	  380.03
     24.0606	  532.00	  444.99	-1422.75	  380.03
     24.0941	  549.00	  444.99	-1422.75	  380.03
     24.1275	  552.00	  444.99	-1422.75	  380.03
     24.1609	  507.00	  444.99	-1422.75	  380.03
     24.1943	  577.00	  444.99	-1422.75	  380.03
     24.2278	  521.00	  444.99	-1422.75	  380.03
     24.2612	  567.00	  444.99	-1422.75	  380.03
     24.2946	  541.00	  444.99	-1422.75	  380.03
     24.3280	  516.00	  444.99	-1422.75	  380.03
     24.3614	  521.00	  444.99	-1422.75	  380.03
     24.3949	  547.00	  444.99	-1422.75	  380.03
     24.4283	  539.00	  444.99	-1422.75	  380.03
     24.4617	  495.00	  444.99	-1422.75	  380.03
     24.4951	  531.00	  444.99	-1422.75	  380.03
     24.5286	  490.00	  444.99	-1422.75	  380.03
     24.5620	  518.00	  444.99	-1422.75	  380.03
     24.5954	  528.00	  444.99	-1422.75	  380.03
     24.6288	  524.00	  444.99	-1422.75	  380.03
     24.6622	  529.00	  444.99	-1422.75	  380.03
     24.6957	  565.00	  444.99	-1422.75	  380.03
     24.7291	  495.00	  444.99	-1422.75	  380.03
     24.7625	  493.00	  444.99	-1422.75	  380.03
     24.7959	  511.00	  444.99	-1422.75	  380.03
     24.8294	  539.00	  444.99	-1422.75	  380.03
     24.8628	  485.00	  444.99	-1422.75	  380.03
     24.8962	  502.00	  444.99	-1422.75	  380.03
     24.9296	  514.00	  444.99	-1422.75	  380.03
     24.9630	  508.00	  444.99	-1422.75	  380.03
     24.9965	  495.00	  444.99	-1422.75	  380.03
     25.0299	  475.00	  444.99	-1422.75	  380.03
     25.0633	  571.00	  444.99	-1422.75	  380.03
     25.0967	  538.00	  444.99	-1422.75	  380.03
     25.1302	  497.00	  444.99	-1422.75	  380.03
     25.1636	  527.00	  444.99	-1422.75	  380.03
     25.1970	  536.00	  444.99	-1422.75	  380.03
     25.2304	  487.00	  444.99	-1422.75	  380.03
     25.2639	  477.00	  444.99	-1422.75	  380.03
     25.2973	  454.00	  444.99	-1422.75	  380.03
     25.3307	  490.00	  444.99	-1422.75	  380.03
     25.3641	  549.00	  444.99	-1422.75	  380.03
     25.3975	  497.00	  444.99	-1422.75	  380.03
     25.4310	  511.00	  444.99	-1422.75	  380.03
     25.4644	  464.00	  444.99	-1422.75	  380.03
     25.4978	  480.00	  444.99	-1422.75	  380.03
     25.5312	  526.00	  444.99	-1422.75	  380.03
     25.5647	  491.00	  444.99	-1422.75	  380.03
     25.5981	  498.00	  444.99	-1422.75	  380.03
     25.6315	  455.00	  444.99	-1422.75	  380.03
     25.6649	  489.00	  444.99	-1422.75	  380.03
     25.6983	  433.00	  444.99	-1422.75	  380.03
     25.7318	  458.00	  444.99	-1422.75	  380.03
     25.7652	  519.00	  444.99	-1422.75	  380.03
     25.7986	  479.00	  444.99	-1422.75	  380.03
     25.8320	  491.00	  444.99	-1422.75	  380.03
     25.8655	  496.00	  444.99	-1422.75	  380.03
     25.8989	  436.00	  444.99	-1422.75	  380.03
     25.9323	  520.00	  444.99	-1422.75	  380.03
     25.9657	  492.00	  444.99	-1422.75	  380.03
     25.9991	  487.00	  444.99	-1422.75	  380.03
     26.0326	  502.00	  444.99	-1422.75	  380.03
     26.0660	  458.00	  444.99	-1422.75	  380.03
     26.0994	  462.00	  444.99	-1422.75	  380.03
     26.1328	  459.00	  444.99	-1422.75	  380.03
     26.1663	  437.00	  444.99	-1422.75	  380.03
     26.1997	  450.00	  444.99	-1422.75	  380.03
     26.2331	  486.00	  444.99	-1422.75	  380.03
     26.2665	  461.00	  444.99	-1422.75	  380.03
     26.2999	  482.00	  444.99	-1422.75	  380.03
     26.3334	  480.00	  444.99	-1422.75	  380.03
     26.3668	  517.00	  444.99	-1422.75	  380.03
     26.4002	  507.00	  444.99	-1422.75	  380.03
     26.4336	  437.00	  444.99	-1422.75	  380.03
     26.4671	  460.00	  444.99	-1422.75	  380.03
     26.5005	  532.00	  444.99	-1422.75	  380.03
     26.5339	  481.00	  444.99	-1422.75	  380.03
     26.5673	  410.00	  444.99	-1422.75	  380.03
     26.6008	  485.00	  444.99	-1422.75	  380.03
     26.6342	  447.00	  444.99	-1422.75	  380.03
     26.6676	  464.00	  444.99	-1422.75	  380.03
     26.7010	  476.00	  444.99	-1422.75	  380.03
     26.7344	  464.00	  444.99	-1422.75	  380.03
     26.7679	  469.00	  444.99	-1422.75	  380.03
     26.8013	  417.00	  444.99	-1422.75	  380.03
     26.8347	  462.00	  444.99	-1422.75	  380.03
     26.8681	  443.00	  444.99	-1422.75	  380.03
     26.9016	  458.00	  444.99	-1422.75	  380.03
     26.9350	  447.00	  444.99	-1422.75	  380.03
     26.9684	  415.00	  444.99	-1422.75	  380.03
     27.0018	  483.00	  444.99	-1422.75	  380.03
     27.0352	  479.00	  444.99	-1422.75	  380.03
     27.0687	  418.00	  444.99	-1422.75	  380.03
     27.1021	  464.00	  444.99	-1422.75	  380.03
     27.1355	  429.00	  444.99	-1422.75	  380.03
     27.1689	  468.00	  444.99	-1422.75	  380.03
     27.2024	  477.00	  444.99	-1422.75	  380.03
     27.2358	  464.00	  444.99	-1422.75	  380.03
     27.2692	  474.00	  444.99	-1422.75	  380.03
     27.3026	  505.00	  444.99	-1422.75	  380.03
     27.3360	  471.00	  444.99	-1422.75	  380.03
     27.3695	  457.00	  444.99	-1422.75	  380.03
     27.4029	  456.00	  444.99	-1422.75	  380.03
     27.4363	  457.00	  444.99	-1422.75	  380.03
     27.4697	  472.00	  444.99	-1422.75	  380.03
     27.5032	  540.00	  444.99	-1422.75	  380.03
     27.5366	  444.00	  444.99	-1422.75	  380.03
     27.5700	  452.00	  444.99	-1422.75	  380.03
     27.6034	  500.00	  444.99	-1422.75	  380.03
     27.6369	  451.00	  444.99	-1422.75	  380.03
     27.6703	  461.00	  444.99	-1422.75	  380.03
     27.7037	  438.00	  444.99	-1422.75	  380.03
     27.7371	  487.00	  444.99	-1422.75	  380.03
     27.7705	  486.00	  444.99	-1422.75	  380.03
     27.8040	  467.00	  444.99	-1422.75	  380.03
     27.8374	  436.00	  444.99	-1422.75	  380.03
     27.8708	  451.00	  444.99	-1422.75	  380.03
     27.9042	  460.00	  444.99	-1422.75	  380.03
     27.9377	  438.00	  444.99	-1422.75	  380.03
     27.9711	  421.00	  444.99	-1422.75	  380.03
     28.0045	  426.00	  444.99	-1422.75	  380.03
     28.0379	  448.00	  444.99	-1422.75	  380.03
     28.0713	  496.00	  444.99	-1422.75	  380.03
     28.1048	  451.00	  444.99	-1422.75	  380.03
     28.1382	  457.00	  444.99	-1422.75	  380.03
     28.1716	  436.00	  444.99	-1422.75	  380.03
     28.2050	  426.00	  444.99	-1422.75	  380.03
     28.2385	  455.00	  444.99	-1422.75	  380.03
     28.2719	  427.00	  444.99	-1422.75	  380.03
     28.3053	  457.00	  444.99	-1422.75	  380.03
     28.3387	  427.00	  444.99	-1422.75	  380.03
     28.3721	  434.00	  444.99	-1422.75	  380.03
     28.4056	  446.00	  444.99	-1422.75	  380.03
     28.4390	  441.00	  444.99	-1422.75	  380.03
     28.4724	  497.00	  444.99	-1422.75	  380.03
     28.5058	  459.00	  444.99	-1422.75	  380.03
     28.5393	  420.00	  444.99	-1422.75	  380.03
     28.5727	  438.00	  444.99	-1422.75	  380.03
     28.6061	  454.00	  444.99	-1422.75	  380.03
     28.6395	  423.00	  444.99	-1422.75	  380.03
     28.6729	  448.00	  444.99	-1422.75	  380.03
     28.7064	  482.00	  444.99	-1422.75	  380.03
     28.7398	  472.00	  444.99	-1422.75	  380.03
     28.7732	  450.00	  444.99	-1422.75	  380.03
     28.8066	  465.00	  444.99	-1422.75	  380.03
     28.8401	  439.00	  445.01	-1422.75	  380.04
     28.8735	  435.00	  444.78	-1422.75	  379.82
     28.9069	  415.00	  444.55	-1422.75	  379.59
     28.9403	  403.00	  444.33	-1422.75	  379.36
     28.9738	  420.00	  444.10	-1422.75	  379.13
     29.0072	  429.00	  443.87	-1422.75	  378.90
     29.0406	  436.00	  443.64	-1422.75	  378.68
     29.0740	  433.00	  443.42	-1422.75	  378.45
     29.1074	  437.00	  443.19	-1422.75	  378.22
     29.1409	  409.00	  442.96	-1422.75	  377.99
     29.1743	  429.00	  442.73	-1422.75	  377.77
     29.2077	  481.00	  442.50	-1422.75	  377.54
     29.2411	  458.00	  442.28	-1422.75	  377.31
     29.2746	  389.00	  442.05	-1422.75	  377.08
     29.3080	  429.00	  441.82	-1422.75	  376.85
     29.3414	  448.00	  441.59	-1422.75	  376.63
     29.3748	  419.00	  441.36	-1422.75	  376.40
     29.4082	  424.00	  441.14	-1422.75	  376.17
     29.4417	  397.00	  440.91	-1422.75	  375.94
     29.4751	  439.00	  440.68	-1422.75	  375.72
     29.5085	  475.00	  440.45	-1422.75	  375.49
     29.5419	  451.00	  440.23	-1422.75	  375.26
     29.5754	  408.00	  440.00	-1422.75	  375.03
     29.6088	  431.00	  439.77	-1422.75	  374.80
     29.6422	  443.00	  439.54	-1422.75	  374.58
     29.6756	  446.00	  439.31	-1422.75	  374.35
     29.7090	  448.00	  439.09	-1422.75	  374.12
     29.7425	  444.00	  438.86	-1422.75	  373.89
     29.7759	  433.00	  438.63	-1422.75	  373.67
     29.8093	  471.00	  438.40	-1422.75	  373.44
     29.8427	  404.00	  438.18	-1422.75	  373.21
     29.8762	  430.00	  437.95	-1422.75	  372.98
     29.9096	  433.00	  437.72	-1422.75	  372.75
     29.9430	  449.00	  437.49	-1422.75	  372.53
     29.9764	  411.00	  437.26	-1422.75	  372.30
     30.0098	  472.00	  437.04	-1422.75	  372.07
     30.0433	  472.00	  436.81	-1422.75	  371.84
     30.0767	  414.00	  436.58	-1422.75	  371.62
     30.1101	  399.00	  436.35	-1422.75	  371.39
     30.1435	  428.00	  436.13	-1422.75	  371.16
     30.1770	  398.00	  435.90	-1422.75	  370.93
     30.2104	  454.00	  435.67	-1422.75	  370.70
     30.2438	  429.00	  435.44	-1422.75	  370.48
     30.2772	  450.00	  435.21	-1422.75	  370.25
     30.3107	  423.00	  434.99	-1422.75	  370.02
     30.3441	  449.00	  434.76	-1422.75	  369.79
     30.3775	  380.00	  434.53	-1422.75	  369.57
     30.4109	  440.00	  434.30	-1422.75	  369.34
     30.4443	  443.00	  434.08	-1422.75	  369.11
     30.4778	  418.00	  433.85	-1422.75	  368.88
     30.5112	  460.00	  433.62	-1422.75	  368.65
     30.5446	  446.00	  433.39	-1422.75	  368.43
     30.5780	  448.00	  433.16	-1422.75	  368.20
     30.6115	  447.00	  432.94	-1422.75	  367.97
     30.6449	  445.00	  432.71	-1422.75	  367.74
     30.6783	  417.00	  432.48	-1422.75	  367.51
     30.7117	  478.00	  432.25	-1422.75	  367.29
     30.7451	  416.00	  432.03	-1422.75	  367.06
     30.7786	  426.00	  431.80	-1422.75	  366.83
     30.8120	  406.00	  431.62	-1422.75	  366.65
     30.8454	  469.00	  431.46	-1422.75	  366.49
     30.8788	  440.00	  431.29	-1422.75	  366.33
     30.9123	  424.00	  431.13	-1422.75	  366.16
     30.9457	  406.00	  430.97	-1422.75	  366.00
     30.9791	  411.00	  430.80	-1422.75	  365.84
     31.0125	  426.00	  430.64	-1422.75	  365.68
     31.0459	  459.00	  430.48	-1422.75	  365.51
     31.0794	  439.00	  430.32	-1422.75	  365.35
     31.1128	  407.00	  430.15	-1422.75	  365.19
     31.1462	  424.00	  429.99	-1422.75	  365.02
     31.1796	  437.00	  429.83	-1422.75	  364.86
     31.2131	  424.00	  429.67	-1422.75	  364.70
     31.2465	  407.00	  429.50	-1422.75	  364.54
     31.2799	  437.00	  429.34	-1422.75	  364.37
     31.3133	  460.00	  429.18	-1422.75	  364.21
     31.3468	  434.00	  429.01	-1422.75	  364.05
     31.3802	  440.00	  428.85	-1422.75	  363.89
     31.4136	  430.00	  428.69	-1422.75	  363.72
     31.4470	  427.00	  428.53	-1422.75	  363.56
     31.4804	  413.00	  428.36	-1422.75	  363.40
     31.5139	  423.00	  428.20	-1422.75	  363.23
     31.5473	  454.00	  428.04	-1422.75	  363.07
     31.5807	  459.00	  427.88	-1422.75	  362.91
     31.6141	  400.00	  427.71	-1422.75	  362.75
     31.6476	  436.00	  427.55	-1422.75	  362.58
     31.6810	  420.00	  427.39	-1422.75	  362.42
     31.7144	  429.00	  427.22	-1422.75	  362.26
     31.7478	  408.00	  427.06	-1422.75	  362.10
     31.7812	  398.00	  426.90	-1422.75	  361.93
     31.8147	  447.00	  426.74	-1422.75	  361.77
     31.8481	  426.00	  426.57	-1422.75	  361.61
     31.8815	  466.00	  426.41	-1422.75	  361.45
     31.9149	  394.00	  426.25	-1422.75	  361.28
     31.9484	  439.00	  426.09	-1422.75	  361.12
     31.9818	  445.00	  425.92	-1422.75	  360.96
     32.0152	  438.00	  425.76	-1422.75	  360.79
     32.0486	  445.00	  425.60	-1422.75	  360.63
     32.0820	  364.00	  425.44	-1422.75	  360.47
     32.1155	  394.00	  425.27	-1422.75	  360.31
     32.1489	  429.00	  425.11	-1422.75	  360.14
     32.1823	  433.00	  424.95	-1422.75	  359.98
     32.2157	  395.00	  424.78	-1422.75	  359.82
     32.2492	  393.00	  424.62	-1422.75	  359.66
     32.2826	  448.00	  424.46	-1422.75	  359.49
     32.3160	  424.00	  424.30	-1422.75	  359.33
     32.3494	  400.00	  424.13	-1422.75	  359.17
     32.3829	  430.00	  423.97	-1422.75	  359.00
     32.4163	  413.00	  423.81	-1422.75	  358.84
     32.4497	  426.00	  423.65	-1422.75	  358.68
     32.4831	  402.00	  423.48	-1422.75	  358.52
     32.5165	  421.00	  423.32	-1422.75	  358.35
     32.5500	  377.00	  423.16	-1422.75	  358.19
     32.5834	  448.00	  422.99	-1422.75	  358.03
     32.6168	  455.00	  422.83	-1422.75	  357.87
     32.6502	  440.00	  422.67	-1422.75	  357.70
     32.6837	  416.00	  422.51	-1422.75	  357.54
     32.7171	  374.00	  422.34	-1422.75	  357.38
     32.7505	  409.00	  422.18	-1422.75	  357.21
     32.7839	  427.00	  422.02	-1422.75	  357.05
     32.8173	  439.00	  421.86	-1422.75	  356.89
     32.8508	  438.00	  421.69	-1422.75	  356.73
     32.8842	  415.00	  421.53	-1422.75	  356.56
     32.9176	  406.00	  421.37	-1422.75	  356.40
     32.9510	  438.00	  421.20	-1422.75	  356.24
     32.9845	  419.00	  421.04	-1422.75	  356.08
     33.0179	  395.00	  420.88	-1422.75	  355.91
     33.0513	  416.00	  420.72	-1422.75	  355.75
     33.0847	  458.00	  420.55	-1422.75	  355.59
     33.1181	  433.00	  420.39	-1422.75	  355.43
     33.1516	  407.00	  420.23	-1422.75	  355.26
     33.1850	  386.00	  420.07	-1422.75	  355.10
     33.2184	  407.00	  419.90	-1422.75	  354.94
     33.2518	  433.00	  419.74	-1422.75	  354.77
     33.2853	  398.00	  419.58	-1422.75	  354.61
     33.3187	  395.00	  419.42	-1422.75	  354.45
     33.3521	  437.00	  419.25	-1422.75	  354.29
     33.3855	  436.00	  419.09	-1422.75	  354.12
