 Ni   Chi2:  2.7429  CELL:    3.52450   3.52450   3.52450   90.0000   90.0000   90.0000   SPGR: 225                    TEMP:      0.00
  1   3291     1.54060     1.54439     0.00000    -0.05808     0.00000    0
    16     0     1
       0.00000      35.00000
 2Theta	Yobs	Ycal	Yobs-Ycal	Backg	Posr	(hkl)	K
     20.0231	 1604.00	  563.60	-1792.00	  465.90
     20.0565	 1636.00	  563.60	-1792.00	  465.90
     20.0900	 1551.00	  563.60	-1792.00	  465.90
     20.1234	 1593.00	  563.60	-1792.00	  465.90
     20.1568	 1628.00	  563.60	-1792.00	  465.90
     20.1902	 1653.00	  563.60	-1792.00	  465.90
     20.2236	 1538.00	  563.60	-1792.00	  465.90
     20.2571	 1587.00	  563.60	-1792.00	  465.90
     20.2905	 1518.00	  563.60	-1792.00	  465.90
     20.3239	 1562.00	  563.60	-1792.00	  465.90
     20.3573	 1529.00	  563.60	-1792.00	  465.90
     20.3908	 1552.00	  563.60	-1792.00	  465.90
     20.4242	 1646.00	  563.60	-1792.00	  465.90
     20.4576	 1520.00	  563.60	-1792.00	  465.90
     20.4910	 1513.00	  563.60	-1792.00	  465.90
     20.5245	 1557.00	  563.60	-1792.00	  465.90
     20.5579	 1614.00	  563.60	-1792.00	  465.90
     20.5913	 1541.00	  563.60	-1792.00	  465.90
     20.6247	 1538.00	  563.60	-1792.00	  465.90
     20.6581	 1515.00	  563.60	-1792.00	  465.90
     20.6916	 1549.00	  563.60	-1792.00	  465.90
     20.7250	 1530.00	  563.60	-1792.00	  465.90
     20.7584	 1578.00	  563.60	-1792.00	  465.90
     20.7918	 1546.00	  563.60	-1792.00	  465.90
     20.8253	 1489.00	  563.60	-1792.00	  465.90
     20.8587	 1505.00	  563.60	-1792.00	  465.90
     20.8921	 1489.00	  563.60	-1792.00	  465.90
     20.9255	 1532.00	  563.60	-1792.00	  465.90
     20.9589	 1456.00	  563.60	-1792.00	  465.90
     20.9924	 1436.00	  563.60	-1792.00	  465.90
     21.0258	 1536.00	  563.60	-1792.00	  465.90
     21.0592	 1522.00	  563.60	-1792.00	  465.90
     21.0926	 1419.00	  563.60	-1792.00	  465.90
     21.1261	 1453.00	  563.60	-1792.00	  465.90
     21.1595	 1459.00	  563.60	-1792.00	  465.90
     21.1929	 1461.00	  563.60	-1792.00	  465.90
     21.2263	 1491.00	  563.60	-1792.00	  465.90
     21.2597	 1438.00	  563.60	-1792.00	  465.90
     21.2932	 1412.00	  563.60	-1792.00	  465.90
     21.3266	 1448.00	  563.60	-1792.00	  465.90
     21.3600	 1401.00	  563.60	-1792.00	  465.90
     21.3934	 1439.00	  563.60	-1792.00	  465.90
     21.4269	 1402.00	  563.60	-1792.00	  465.90
     21.4603	 1458.00	  563.60	-1792.00	  465.90
     21.4937	 1378.00	  563.60	-1792.00	  465.90
     21.5271	 1362.00	  563.60	-1792.00	  465.90
     21.5605	 1374.00	  563.60	-1792.00	  465.90
     21.5940	 1413.00	  563.60	-1792.00	  465.90
     21.6274	 1403.00	  563.60	-1792.00	  465.90
     21.6608	 1388.00	  563.60	-1792.00	  465.90
     21.6942	 1363.00	  563.60	-1792.00	  465.90
     21.7277	 1327.00	  563.60	-1792.00	  465.90
     21.7611	 1295.00	  563.60	-1792.00	  465.90
     21.7945	 1368.00	  563.60	-1792.00	  465.90
     21.8279	 1372.00	  563.60	-1792.00	  465.90
     21.8614	 1350.00	  563.60	-1792.00	  465.90
     21.8948	 1376.00	  563.60	-1792.00	  465.90
     21.9282	 1344.00	  563.60	-1792.00	  465.90
     21.9616	 1319.00	  563.60	-1792.00	  465.90
     21.9950	 1311.00	  563.60	-1792.00	  465.90
     22.0285	 1268.00	  563.60	-1792.00	  465.90
     22.0619	 1341.00	  563.60	-1792.00	  465.90
     22.0953	 1293.00	  563.60	-1792.00	  465.90
     22.1287	 1234.00	  563.60	-1792.00	  465.90
     22.1622	 1271.00	  563.60	-1792.00	  465.90
     22.1956	 1251.00	  563.60	-1792.00	  465.90
     22.2290	 1220.00	  563.60	-1792.00	  465.90
     22.2624	 1228.00	  563.60	-1792.00	  465.90
     22.2958	 1165.00	  563.60	-1792.00	  465.90
     22.3293	 1206.00	  563.60	-1792.00	  465.90
     22.3627	 1254.00	  563.60	-1792.00	  465.90
     22.3961	 1261.00	  563.60	-1792.00	  465.90
     22.4295	 1200.00	  563.60	-1792.00	  465.90
     22.4630	 1245.00	  563.60	-1792.00	  465.90
     22.4964	 1251.00	  563.60	-1792.00	  465.90
     22.5298	 1231.00	  563.60	-1792.00	  465.90
     22.5632	 1234.00	  563.60	-1792.00	  465.90
     22.5966	 1171.00	  563.60	-1792.00	  465.90
     22.6301	 1089.00	  563.60	-1792.00	  465.90
     22.6635	 1148.00	  563.60	-1792.00	  465.90
     22.6969	 1188.00	  563.60	-1792.00	  465.90
     22.7303	 1162.00	  563.60	-1792.00	  465.90
     22.7638	 1148.00	  563.60	-1792.00	  465.90
     22.7972	 1156.00	  563.60	-1792.00	  465.90
     22.8306	 1101.00	  563.60	-1792.00	  465.90
     22.8640	 1118.00	  563.60	-1792.00	  465.90
     22.8974	 1117.00	  563.60	-1792.00	  465.90
     22.9309	 1087.00	  563.60	-1792.00	  465.90
     22.9643	 1125.00	  563.60	-1792.00	  465.90
     22.9977	 1072.00	  563.60	-1792.00	  465.90
     23.0311	 1067.00	  563.60	-1792.00	  465.90
     23.0646	 1078.00	  563.60	-1792.00	  465.90
     23.0980	 1137.00	  563.60	-1792.00	  465.90
     23.1314	 1123.00	  563.60	-1792.00	  465.90
     23.1648	 1080.00	  563.60	-1792.00	  465.90
     23.1983	 1086.00	  563.60	-1792.00	  465.90
     23.2317	 1127.00	  563.60	-1792.00	  465.90
     23.2651	 1100.00	  563.60	-1792.00	  465.90
     23.2985	 1054.00	  563.60	-1792.00	  465.90
     23.3319	 1018.00	  563.60	-1792.00	  465.90
     23.3654	 1078.00	  563.60	-1792.00	  465.90
     23.3988	 1021.00	  563.60	-1792.00	  465.90
     23.4322	 1042.00	  563.60	-1792.00	  465.90
     23.4656	 1069.00	  563.60	-1792.00	  465.90
     23.4991	 1011.00	  563.60	-1792.00	  465.90
     23.5325	 1049.00	  563.60	-1792.00	  465.90
     23.5659	  995.00	  563.60	-1792.00	  465.90
     23.5993	 1023.00	  563.60	-1792.00	  465.90
     23.6327	  986.00	  563.60	-1792.00	  465.90
     23.6662	  993.00	  563.60	-1792.00	  465.90
     23.6996	 1046.00	  563.60	-1792.00	  465.90
     23.7330	 1017.00	  563.60	-1792.00	  465.90
     23.7664	  938.00	  563.60	-1792.00	  465.90
     23.7999	  965.00	  563.60	-1792.00	  465.90
     23.8333	  918.00	  563.60	-1792.00	  465.90
     23.8667	 1022.00	  563.60	-1792.00	  465.90
     23.9001	  943.00	  563.60	-1792.00	  465.90
     23.9335	 1008.00	  563.60	-1792.00	  465.90
     23.9670	  911.00	  563.60	-1792.00	  465.90
     24.0004	  929.00	  563.60	-1792.00	  465.90
     24.0338	 1005.00	  563.60	-1792.00	  465.90
     24.0672	  974.00	  563.60	-1792.00	  465.90
     24.1007	  910.00	  563.60	-1792.00	  465.90
     24.1341	  887.00	  563.60	-1792.00	  465.90
     24.1675	  948.00	  563.60	-1792.00	  465.90
     24.2009	  871.00	  563.60	-1792.00	  465.90
     24.2344	  892.00	  563.60	-1792.00	  465.90
     24.2678	  872.00	  563.60	-1792.00	  465.90
     24.3012	  953.00	  563.60	-1792.00	  465.90
     24.3346	  910.00	  563.60	-1792.00	  465.90
     24.3680	  880.00	  563.60	-1792.00	  465.90
     24.4015	  869.00	  563.60	-1792.00	  465.90
     24.4349	  876.00	  563.60	-1792.00	  465.90
     24.4683	  851.00	  563.60	-1792.00	  465.90
     24.5017	  852.00	  563.60	-1792.00	  465.90
     24.5352	  874.00	  563.60	-1792.00	  465.90
     24.5686	  892.00	  563.60	-1792.00	  465.90
     24.6020	  825.00	  563.60	-1792.00	  465.90
     24.6354	  956.00	  563.60	-1792.00	  465.90
     24.6688	  900.00	  563.60	-1792.00	  465.90
     24.7023	  850.00	  563.60	-1792.00	  465.90
     24.7357	  837.00	  563.60	-1792.00	  465.90
     24.7691	  882.00	  563.60	-1792.00	  465.90
     24.8025	  820.00	  563.60	-1792.00	  465.90
     24.8360	  794.00	  563.60	-1792.00	  465.90
     24.8694	  833.00	  563.60	-1792.00	  465.90
     24.9028	  827.00	  563.60	-1792.00	  465.90
     24.9362	  867.00	  563.60	-1792.00	  465.90
     24.9696	  876.00	  563.60	-1792.00	  465.90
     25.0031	  816.00	  563.60	-1792.00	  465.90
     25.0365	  808.00	  563.60	-1792.00	  465.90
     25.0699	  748.00	  563.60	-1792.00	  465.90
     25.1033	  831.00	  563.60	-1792.00	  465.90
     25.1368	  816.00	  563.60	-1792.00	  465.90
     25.1702	  847.00	  563.60	-1792.00	  465.90
     25.2036	  789.00	  563.60	-1792.00	  465.90
     25.2370	  798.00	  563.60	-1792.00	  465.90
     25.2705	  749.00	  563.60	-1792.00	  465.90
     25.3039	  791.00	  563.60	-1792.00	  465.90
     25.3373	  784.00	  563.60	-1792.00	  465.90
     25.3707	  774.00	  563.60	-1792.00	  465.90
     25.4041	  758.00	  563.60	-1792.00	  465.90
     25.4376	  775.00	  563.60	-1792.00	  465.90
     25.4710	  787.00	  563.60	-1792.00	  465.90
     25.5044	  837.00	  563.60	-1792.00	  465.90
     25.5378	  745.00	  563.60	-1792.00	  465.90
     25.5713	  733.00	  563.60	-1792.00	  465.90
     25.6047	  799.00	  563.60	-1792.00	  465.90
     25.6381	  761.00	  563.60	-1792.00	  465.90
     25.6715	  742.00	  563.60	-1792.00	  465.90
     25.7049	  789.00	  563.60	-1792.00	  465.90
     25.7384	  730.00	  563.60	-1792.00	  465.90
     25.7718	  728.00	  563.60	-1792.00	  465.90
     25.8052	  757.00	  563.60	-1792.00	  465.90
     25.8386	  760.00	  563.60	-1792.00	  465.90
     25.8721	  761.00	  563.60	-1792.00	  465.90
     25.9055	  774.00	  563.60	-1792.00	  465.90
     25.9389	  764.00	  563.60	-1792.00	  465.90
     25.9723	  761.00	  563.60	-1792.00	  465.90
     26.0057	  774.00	  563.60	-1792.00	  465.90
     26.0392	  754.00	  563.60	-1792.00	  465.90
     26.0726	  770.00	  563.60	-1792.00	  465.90
     26.1060	  790.00	  563.60	-1792.00	  465.90
     26.1394	  750.00	  563.60	-1792.00	  465.90
     26.1729	  689.00	  563.60	-1792.00	  465.90
     26.2063	  748.00	  563.60	-1792.00	  465.90
     26.2397	  728.00	  563.60	-1792.00	  465.90
     26.2731	  740.00	  563.60	-1792.00	  465.90
     26.3065	  735.00	  563.60	-1792.00	  465.90
     26.3400	  759.00	  563.60	-1792.00	  465.90
     26.3734	  732.00	  563.60	-1792.00	  465.90
     26.4068	  718.00	  563.60	-1792.00	  465.90
     26.4402	  737.00	  563.60	-1792.00	  465.90
     26.4737	  702.00	  563.60	-1792.00	  465.90
     26.5071	  715.00	  563.60	-1792.00	  465.90
     26.5405	  704.00	  563.60	-1792.00	  465.90
     26.5739	  701.00	  563.60	-1792.00	  465.90
     26.6074	  756.00	  563.60	-1792.00	  465.90
     26.6408	  704.00	  563.60	-1792.00	  465.90
     26.6742	  735.00	  563.60	-1792.00	  465.90
     26.7076	  695.00	  563.60	-1792.00	  465.90
     26.7410	  698.00	  563.60	-1792.00	  465.90
     26.7745	  681.00	  563.60	-1792.00	  465.90
     26.8079	  637.00	  563.60	-1792.00	  465.90
     26.8413	  717.00	  563.60	-1792.00	  465.90
     26.8747	  706.00	  563.60	-1792.00	  465.90
     26.9082	  683.00	  563.60	-1792.00	  465.90
     26.9416	  730.00	  563.60	-1792.00	  465.90
     26.9750	  696.00	  563.60	-1792.00	  465.90
     27.0084	  732.00	  563.60	-1792.00	  465.90
     27.0418	  668.00	  563.60	-1792.00	  465.90
     27.0753	  724.00	  563.60	-1792.00	  465.90
     27.1087	  635.00	  563.60	-1792.00	  465.90
     27.1421	  680.00	  563.60	-1792.00	  465.90
     27.1755	  714.00	  563.60	-1792.00	  465.90
     27.2090	  703.00	  563.60	-1792.00	  465.90
     27.2424	  693.00	  563.60	-1792.00	  465.90
     27.2758	  726.00	  563.60	-1792.00	  465.90
     27.3092	  630.00	  563.60	-1792.00	  465.90
     27.3426	  678.00	  563.60	-1792.00	  465.90
     27.3761	  643.00	  563.60	-1792.00	  465.90
     27.4095	  706.00	  563.60	-1792.00	  465.90
     27.4429	  670.00	  563.60	-1792.00	  465.90
     27.4763	  667.00	  563.60	-1792.00	  465.90
     27.5098	  647.00	  563.60	-1792.00	  465.90
     27.5432	  695.00	  563.60	-1792.00	  465.90
     27.5766	  627.00	  563.60	-1792.00	  465.90
     27.6100	  702.00	  563.60	-1792.00	  465.90
     27.6434	  692.00	  563.60	-1792.00	  465.90
     27.6769	  678.00	  563.60	-1792.00	  465.90
     27.7103	  658.00	  563.60	-1792.00	  465.90
     27.7437	  680.00	  563.60	-1792.00	  465.90
     27.7771	  647.00	  563.60	-1792.00	  465.90
     27.8106	  681.00	  563.60	-1792.00	  465.90
     27.8440	  629.00	  563.60	-1792.00	  465.90
     27.8774	  655.00	  563.60	-1792.00	  465.90
     27.9108	  654.00	  563.60	-1792.00	  465.90
     27.9443	  646.00	  563.60	-1792.00	  465.90
     27.9777	  697.00	  563.60	-1792.00	  465.90
     28.0111	  655.00	  563.60	-1792.00	  465.90
     28.0445	  714.00	  563.60	-1792.00	  465.90
     28.0779	  688.00	  563.60	-1792.00	  465.90
     28.1114	  653.00	  563.60	-1792.00	  465.90
     28.1448	  634.00	  563.60	-1792.00	  465.90
     28.1782	  633.00	  563.60	-1792.00	  465.90
     28.2116	  668.00	  563.60	-1792.00	  465.90
     28.2451	  662.00	  563.60	-1792.00	  465.90
     28.2785	  645.00	  563.60	-1792.00	  465.90
     28.3119	  675.00	  563.60	-1792.00	  465.90
     28.3453	  616.00	  563.60	-1792.00	  465.90
     28.3787	  660.00	  563.60	-1792.00	  465.90
     28.4122	  645.00	  563.60	-1792.00	  465.90
     28.4456	  621.00	  563.60	-1792.00	  465.90
     28.4790	  579.00	  563.60	-1792.00	  465.90
     28.5124	  661.00	  563.60	-1792.00	  465.90
     28.5459	  655.00	  563.60	-1792.00	  465.90
     28.5793	  649.00	  563.60	-1792.00	  465.90
     28.6127	  654.00	  563.60	-1792.00	  465.90
     28.6461	  668.00	  563.60	-1792.00	  465.90
     28.6795	  611.00	  563.60	-1792.00	  465.90
     28.7130	  606.00	  563.60	-1792.00	  465.90
     28.7464	  667.00	  563.60	-1792.00	  465.90
     28.7798	  642.00	  563.60	-1792.00	  465.90
     28.8132	  671.00	  563.60	-1792.00	  465.90
     28.8467	  612.00	  563.60	-1792.00	  465.90
     28.8801	  652.00	  563.60	-1792.00	  465.90
     28.9135	  617.00	  563.60	-1792.00	  465.90
     28.9469	  637.00	  563.60	-1792.00	  465.90
     28.9804	  676.00	  563.60	-1792.00	  465.90
     29.0138	  606.00	  563.60	-1792.00	  465.90
     29.0472	  665.00	  563.60	-1792.00	  465.90
     29.0806	  622.00	  563.60	-1792.00	  465.90
     29.1140	  645.00	  563.60	-1792.00	  465.90
     29.1475	  616.00	  563.60	-1792.00	  465.90
     29.1809	  663.00	  563.60	-1792.00	  465.90
     29.2143	  617.00	  563.60	-1792.00	  465.90
     29.2477	  668.00	  563.60	-1792.00	  465.90
     29.2812	  594.00	  563.60	-1792.00	  465.90
     29.3146	  642.00	  563.60	-1792.00	  465.90
     29.3480	  673.00	  563.60	-1792.00	  465.90
     29.3814	  590.00	  563.60	-1792.00	  465.90
     29.4148	  668.00	  563.60	-1792.00	  465.90
     29.4483	  651.00	  563.60	-1792.00	  465.90
     29.4817	  617.00	  563.60	-1792.00	  465.90
     29.5151	  649.00	  563.60	-1792.00	  465.90
     29.5485	  604.00	  563.60	-1792.00	  465.90
     29.5820	  625.00	  563.60	-1792.00	  465.90
     29.6154	  649.00	  563.60	-1792.00	  465.90
     29.6488	  643.00	  563.60	-1792.00	  465.90
     29.6822	  585.00	  563.60	-1792.00	  465.90
     29.7156	  603.00	  563.60	-1792.00	  465.90
     29.7491	  633.00	  563.60	-1792.00	  465.90
     29.7825	  572.00	  563.60	-1792.00	  465.90
     29.8159	  616.00	  563.60	-1792.00	  465.90
     29.8493	  600.00	  563.60	-1792.00	  465.90
     29.8828	  635.00	  563.60	-1792.00	  465.90
     29.9162	  588.00	  563.60	-1792.00	  465.90
     29.9496	  606.00	  563.60	-1792.00	  465.90
     29.9830	  609.00	  563.60	-1792.00	  465.90
     30.0164	  569.00	  563.60	-1792.00	  465.90
     30.0499	  613.00	  563.60	-1792.00	  465.90
     30.0833	  622.00	  563.60	-1792.00	  465.90
     30.1167	  569.00	  563.60	-1792.00	  465.90
     30.1501	  601.00	  563.60	-1792.00	  465.90
     30.1836	  641.00	  563.60	-1792.00	  465.90
     30.2170	  588.00	  563.60	-1792.00	  465.90
     30.2504	  617.00	  563.60	-1792.00	  465.90
     30.2838	  596.00	  563.60	-1792.00	  465.90
     30.3173	  617.00	  563.60	-1792.00	  465.90
     30.3507	  596.00	  563.60	-1792.00	  465.90
     30.3841	  577.00	  563.60	-1792.00	  465.90
     30.4175	  560.00	  563.60	-1792.00	  465.90
     30.4509	  574.00	  563.60	-1792.00	  465.90
     30.4844	  609.00	  563.60	-1792.00	  465.90
     30.5178	  552.00	  563.60	-1792.00	  465.90
     30.5512	  634.00	  563.60	-1792.00	  465.90
     30.5846	  572.00	  563.60	-1792.00	  465.90
     30.6181	  617.00	  563.60	-1792.00	  465.90
     30.6515	  611.00	  563.60	-1792.00	  465.90
     30.6849	  605.00	  563.60	-1792.00	  465.90
     30.7183	  560.00	  563.60	-1792.00	  465.90
     30.7517	  603.00	  563.60	-1792.00	  465.90
     30.7852	  611.00	  563.60	-1792.00	  465.90
     30.8186	  586.00	  563.60	-1792.00	  465.90
     30.8520	  609.00	  563.60	-1792.00	  465.90
     30.8854	  596.00	  563.60	-1792.00	  465.90
     30.9189	  589.00	  563.60	-1792.00	  465.90
     30.9523	  672.00	  563.60	-1792.00	  465.90
     30.9857	  569.00	  563.60	-1792.00	  465.90
     31.0191	  593.00	  563.60	-1792.00	  465.90
     31.0525	  602.00	  563.60	-1792.00	  465.90
     31.0860	  594.00	  563.60	-1792.00	  465.90
     31.1194	  608.00	  563.60	-1792.00	  465.90
     31.1528	  622.00	  563.60	-1792.00	  465.90
     31.1862	  585.00	  563.60	-1792.00	  465.90
     31.2197	  595.00	  563.60	-1792.00	  465.90
     31.2531	  604.00	  563.60	-1792.00	  465.90
     31.2865	  593.00	  563.60	-1792.00	  465.90
     31.3199	  580.00	  563.60	-1792.00	  465.90
     31.3534	  562.00	  563.60	-1792.00	  465.90
     31.3868	  574.00	  563.60	-1792.00	  465.90
     31.4202	  565.00	  563.60	-1792.00	  465.90
     31.4536	  568.00	  563.60	-1792.00	  465.90
     31.4870	  593.00	  563.60	-1792.00	  465.90
     31.5205	  609.00	  563.60	-1792.00	  465.90
     31.5539	  539.00	  563.60	-1792.00	  465.90
     31.5873	  615.00	  563.60	-1792.00	  465.90
     31.6207	  640.00	  563.60	-1792.00	  465.90
     31.6542	  616.00	  563.60	-1792.00	  465.90
     31.6876	  605.00	  563.60	-1792.00	  465.90
     31.7210	  595.00	  563.60	-1792.00	  465.90
     31.7544	  595.00	  563.60	-1792.00	  465.90
     31.7878	  584.00	  563.60	-1792.00	  465.90
     31.8213	  610.00	  563.60	-1792.00	  465.90
     31.8547	  590.00	  563.60	-1792.00	  465.90
     31.8881	  568.00	  563.60	-1792.00	  465.90
     31.9215	  596.00	  563.60	-1792.00	  465.90
     31.9550	  601.00	  563.60	-1792.00	  465.90
     31.9884	  580.00	  563.60	-1792.00	  465.90
     32.0218	  586.00	  563.60	-1792.00	  465.90
     32.0552	  590.00	  563.60	-1792.00	  465.90
     32.0886	  555.00	  563.60	-1792.00	  465.90
     32.1221	  584.00	  563.60	-1792.00	  465.90
     32.1555	  613.00	  563.60	-1792.00	  465.90
     32.1889	  579.00	  563.60	-1792.00	  465.90
     32.2223	  573.00	  563.60	-1792.00	  465.90
     32.2558	  580.00	  563.60	-1792.00	  465.90
     32.2892	  579.00	  563.60	-1792.00	  465.90
     32.3226	  582.00	  563.60	-1792.00	  465.90
     32.3560	  554.00	  563.60	-1792.00	  465.90
     32.3895	  602.00	  563.60	-1792.00	  465.90
     32.4229	  572.00	  563.60	-1792.00	  465.90
     32.4563	  539.00	  563.60	-1792.00	  465.90
     32.4897	  567.00	  563.60	-1792.00	  465.90
     32.5231	  606.00	  563.60	-1792.00	  465.90
     32.5566	  511.00	  563.60	-1792.00	  465.90
     32.5900	  582.00	  563.60	-1792.00	  465.90
     32.6234	  559.00	  563.60	-1792.00	  465.90
     32.6568	  550.00	  563.60	-1792.00	  465.90
     32.6903	  559.00	  563.60	-1792.00	  465.90
     32.7237	  530.00	  563.60	-1792.00	  465.90
     32.7571	  540.00	  563.60	-1792.00	  465.90
     32.7905	  570.00	  563.60	-1792.00	  465.90
     32.8239	  589.00	  563.60	-1792.00	  465.90
     32.8574	  562.00	  563.60	-1792.00	  465.90
     32.8908	  599.00	  563.60	-1792.00	  465.90
     32.9242	  588.00	  563.60	-1792.00	  465.90
     32.9576	  583.00	  563.60	-1792.00	  465.90
     32.9911	  589.00	  563.60	-1792.00	  465.90
     33.0245	  557.00	  563.60	-1792.00	  465.90
     33.0579	  577.00	  563.60	-1792.00	  465.90
     33.0913	  562.00	  563.60	-1792.00	  465.90
     33.1247	  609.00	  563.60	-1792.00	  465.90
     33.1582	  559.00	  563.60	-1792.00	  465.90
     33.1916	  542.00	  563.60	-1792.00	  465.90
     33.2250	  599.00	  563.60	-1792.00	  465.90
     33.2584	  548.00	  563.60	-1792.00	  465.90
     33.2919	  561.00	  563.60	-1792.00	  465.90
     33.3253	  577.00	  563.60	-1792.00	  465.90
     33.3587	  583.00	  563.60	-1792.00	  465.90
     33.3921	  581.00	  563.60	-1792.00	  465.90
