 Ni   Chi2:  1.9717  CELL:    3.52481   3.52481   3.52481   90.0000   90.0000   90.0000   SPGR: 225                    TEMP:      0.00
  1   3291     1.54060     1.54439     0.00000    -0.02652     0.00000    0
    12     0     1
       0.00000      35.00000
 2Theta	Yobs	Ycal	Yobs-Ycal	Backg	Posr	(hkl)	K
     20.0231	   709.0	   447.2	 -4678.8	   335.4
     20.0565	   676.0	   447.2	 -4678.8	   335.4
     20.0900	   686.0	   447.2	 -4678.8	   335.4
     20.1234	   606.0	   447.2	 -4678.8	   335.4
     20.1568	   682.0	   447.2	 -4678.8	   335.4
     20.1902	   684.0	   447.2	 -4678.8	   335.4
     20.2236	   703.0	   447.2	 -4678.8	   335.4
     20.2571	   693.0	   447.2	 -4678.8	   335.4
     20.2905	   670.0	   447.2	 -4678.8	   335.4
     20.3239	   672.0	   447.2	 -4678.8	   335.4
     20.3573	   682.0	   447.2	 -4678.8	   335.4
     20.3908	   699.0	   447.2	 -4678.8	   335.4
     20.4242	   680.0	   447.2	 -4678.8	   335.4
     20.4576	   620.0	   447.2	 -4678.8	   335.4
     20.4910	   665.0	   447.2	 -4678.8	   335.4
     20.5245	   627.0	   447.2	 -4678.8	   335.4
     20.5579	   663.0	   447.2	 -4678.8	   335.4
     20.5913	   682.0	   447.2	 -4678.8	   335.4
     20.6247	   672.0	   447.2	 -4678.8	   335.4
     20.6581	   617.0	   447.2	 -4678.8	   335.4
     20.6916	   647.0	   447.2	 -4678.8	   335.4
     20.7250	   634.0	   447.2	 -4678.8	   335.4
     20.7584	   678.0	   447.2	 -4678.8	   335.4
     20.7918	   644.0	   447.2	 -4678.8	   335.4
     20.8253	   634.0	   447.2	 -4678.8	   335.4
     20.8587	   646.0	   447.2	 -4678.8	   335.4
     20.8921	   559.0	   447.2	 -4678.8	   335.4
     20.9255	   647.0	   447.2	 -4678.8	   335.4
     20.9589	   632.0	   447.2	 -4678.8	   335.4
     20.9924	   629.0	   447.2	 -4678.8	   335.4
     21.0258	   637.0	   447.2	 -4678.8	   335.4
     21.0592	   623.0	   447.2	 -4678.8	   335.4
     21.0926	   668.0	   447.2	 -4678.8	   335.4
     21.1261	   672.0	   447.2	 -4678.8	   335.4
     21.1595	   622.0	   447.2	 -4678.8	   335.4
     21.1929	   606.0	   447.2	 -4678.8	   335.4
     21.2263	   675.0	   447.2	 -4678.8	   335.4
     21.2597	   636.0	   447.2	 -4678.8	   335.4
     21.2932	   630.0	   447.2	 -4678.8	   335.4
     21.3266	   615.0	   447.2	 -4678.8	   335.4
     21.3600	   627.0	   447.2	 -4678.8	   335.4
     21.3934	   603.0	   447.2	 -4678.8	   335.4
     21.4269	   639.0	   447.2	 -4678.8	   335.4
     21.4603	   620.0	   447.2	 -4678.8	   335.4
     21.4937	   627.0	   447.2	 -4678.8	   335.4
     21.5271	   599.0	   447.2	 -4678.8	   335.4
     21.5605	   651.0	   447.2	 -4678.8	   335.4
     21.5940	   593.0	   447.2	 -4678.8	   335.4
     21.6274	   643.0	   447.2	 -4678.8	   335.4
     21.6608	   602.0	   447.2	 -4678.8	   335.4
     21.6942	   558.0	   447.2	 -4678.8	   335.4
     21.7277	   583.0	   447.2	 -4678.8	   335.4
     21.7611	   603.0	   447.2	 -4678.8	   335.4
     21.7945	   635.0	   447.2	 -4678.8	   335.4
     21.8279	   627.0	   447.2	 -4678.8	   335.4
     21.8614	   649.0	   447.2	 -4678.8	   335.4
     21.8948	   552.0	   447.2	 -4678.8	   335.4
     21.9282	   583.0	   447.2	 -4678.8	   335.4
     21.9616	   577.0	   447.2	 -4678.8	   335.4
     21.9950	   573.0	   447.2	 -4678.8	   335.4
     22.0285	   575.0	   447.2	 -4678.8	   335.4
     22.0619	   577.0	   447.2	 -4678.8	   335.4
     22.0953	   604.0	   447.2	 -4678.8	   335.4
     22.1287	   593.0	   447.2	 -4678.8	   335.4
     22.1622	   558.0	   447.2	 -4678.8	   335.4
     22.1956	   603.0	   447.2	 -4678.8	   335.4
     22.2290	   570.0	   447.2	 -4678.8	   335.4
     22.2624	   543.0	   447.2	 -4678.8	   335.4
     22.2958	   601.0	   447.2	 -4678.8	   335.4
     22.3293	   552.0	   447.2	 -4678.8	   335.4
     22.3627	   577.0	   447.2	 -4678.8	   335.4
     22.3961	   564.0	   447.2	 -4678.8	   335.4
     22.4295	   542.0	   447.2	 -4678.8	   335.4
     22.4630	   577.0	   447.2	 -4678.8	   335.4
     22.4964	   517.0	   447.2	 -4678.8	   335.4
     22.5298	   521.0	   447.2	 -4678.8	   335.4
     22.5632	   572.0	   447.2	 -4678.8	   335.4
     22.5966	   561.0	   447.2	 -4678.8	   335.4
     22.6301	   537.0	   447.2	 -4678.8	   335.4
     22.6635	   585.0	   447.2	 -4678.8	   335.4
     22.6969	   498.0	   447.2	 -4678.8	   335.4
     22.7303	   596.0	   447.2	 -4678.8	   335.4
     22.7638	   513.0	   447.2	 -4678.8	   335.4
     22.7972	   543.0	   447.2	 -4678.8	   335.4
     22.8306	   516.0	   447.2	 -4678.8	   335.4
     22.8640	   574.0	   447.2	 -4678.8	   335.4
     22.8974	   538.0	   447.2	 -4678.8	   335.4
     22.9309	   598.0	   447.2	 -4678.8	   335.4
     22.9643	   563.0	   447.2	 -4678.8	   335.4
     22.9977	   555.0	   447.2	 -4678.8	   335.4
     23.0311	   531.0	   447.2	 -4678.8	   335.4
     23.0646	   546.0	   447.2	 -4678.8	   335.4
     23.0980	   510.0	   447.2	 -4678.8	   335.4
     23.1314	   552.0	   447.2	 -4678.8	   335.4
     23.1648	   501.0	   447.2	 -4678.8	   335.4
     23.1983	   565.0	   447.2	 -4678.8	   335.4
     23.2317	   518.0	   447.2	 -4678.8	   335.4
     23.2651	   510.0	   447.2	 -4678.8	   335.4
     23.2985	   514.0	   447.2	 -4678.8	   335.4
     23.3319	   565.0	   447.2	 -4678.8	   335.4
     23.3654	   480.0	   447.2	 -4678.8	   335.4
     23.3988	   547.0	   447.2	 -4678.8	   335.4
     23.4322	   510.0	   447.2	 -4678.8	   335.4
     23.4656	   502.0	   447.2	 -4678.8	   335.4
     23.4991	   529.0	   447.2	 -4678.8	   335.4
     23.5325	   508.0	   447.2	 -4678.8	   335.4
     23.5659	   481.0	   447.2	 -4678.8	   335.4
     23.5993	   498.0	   447.2	 -4678.8	   335.4
     23.6327	   519.0	   447.2	 -4678.8	   335.4
     23.6662	   543.0	   447.2	 -4678.8	   335.4
     23.6996	   514.0	   447.2	 -4678.8	   335.4
     23.7330	   501.0	   447.2	 -4678.8	   335.4
     23.7664	   530.0	   447.2	 -4678.8	   335.4
     23.7999	   520.0	   447.2	 -4678.8	   335.4
     23.8333	   571.0	   447.2	 -4678.8	   335.4
     23.8667	   497.0	   447.2	 -4678.8	   335.4
     23.9001	   507.0	   447.2	 -4678.8	   335.4
     23.9335	   485.0	   447.2	 -4678.8	   335.4
     23.9670	   498.0	   447.2	 -4678.8	   335.4
     24.0004	   497.0	   447.2	 -4678.8	   335.4
     24.0338	   520.0	   447.2	 -4678.8	   335.4
     24.0672	   479.0	   447.2	 -4678.8	   335.4
     24.1007	   528.0	   447.2	 -4678.8	   335.4
     24.1341	   550.0	   447.2	 -4678.8	   335.4
     24.1675	   518.0	   447.2	 -4678.8	   335.4
     24.2009	   489.0	   447.2	 -4678.8	   335.4
     24.2344	   530.0	   447.2	 -4678.8	   335.4
     24.2678	   483.0	   447.2	 -4678.8	   335.4
     24.3012	   528.0	   447.2	 -4678.8	   335.4
     24.3346	   509.0	   447.2	 -4678.8	   335.4
     24.3680	   467.0	   447.2	 -4678.8	   335.4
     24.4015	   452.0	   447.2	 -4678.8	   335.4
     24.4349	   459.0	   447.2	 -4678.8	   335.4
     24.4683	   472.0	   447.2	 -4678.8	   335.4
     24.5017	   508.0	   447.2	 -4678.8	   335.4
     24.5352	   485.0	   447.2	 -4678.8	   335.4
     24.5686	   456.0	   447.2	 -4678.8	   335.4
     24.6020	   479.0	   447.2	 -4678.8	   335.4
     24.6354	   492.0	   447.2	 -4678.8	   335.4
     24.6688	   439.0	   447.2	 -4678.8	   335.4
     24.7023	   467.0	   447.2	 -4678.8	   335.4
     24.7357	   498.0	   447.2	 -4678.8	   335.4
     24.7691	   505.0	   447.2	 -4678.8	   335.4
     24.8025	   493.0	   447.2	 -4678.8	   335.4
     24.8360	   495.0	   447.2	 -4678.8	   335.4
     24.8694	   493.0	   447.2	 -4678.8	   335.4
     24.9028	   464.0	   447.2	 -4678.8	   335.4
     24.9362	   530.0	   447.2	 -4678.8	   335.4
     24.9696	   519.0	   447.2	 -4678.8	   335.4
     25.0031	   456.0	   447.2	 -4678.8	   335.4
     25.0365	   470.0	   447.2	 -4678.8	   335.4
     25.0699	   469.0	   447.2	 -4678.8	   335.4
     25.1033	   462.0	   447.2	 -4678.8	   335.4
     25.1368	   469.0	   447.2	 -4678.8	   335.4
     25.1702	   487.0	   447.2	 -4678.8	   335.4
     25.2036	   455.0	   447.2	 -4678.8	   335.4
     25.2370	   449.0	   447.2	 -4678.8	   335.4
     25.2705	   476.0	   447.2	 -4678.8	   335.4
     25.3039	   423.0	   447.2	 -4678.8	   335.4
     25.3373	   498.0	   447.2	 -4678.8	   335.4
     25.3707	   501.0	   447.2	 -4678.8	   335.4
     25.4041	   478.0	   447.2	 -4678.8	   335.4
     25.4376	   440.0	   447.2	 -4678.8	   335.4
     25.4710	   514.0	   447.2	 -4678.8	   335.4
     25.5044	   493.0	   447.2	 -4678.8	   335.4
     25.5378	   476.0	   447.2	 -4678.8	   335.4
     25.5713	   497.0	   447.2	 -4678.8	   335.4
     25.6047	   477.0	   447.2	 -4678.8	   335.4
     25.6381	   445.0	   447.2	 -4678.8	   335.4
     25.6715	   441.0	   447.2	 -4678.8	   335.4
     25.7049	   399.0	   447.2	 -4678.8	   335.4
     25.7384	   475.0	   447.2	 -4678.8	   335.4
     25.7718	   467.0	   447.2	 -4678.8	   335.4
     25.8052	   470.0	   447.2	 -4678.8	   335.4
     25.8386	   467.0	   447.2	 -4678.8	   335.4
     25.8721	   467.0	   447.2	 -4678.8	   335.4
     25.9055	   457.0	   447.2	 -4678.8	   335.4
     25.9389	   464.0	   447.2	 -4678.8	   335.4
     25.9723	   441.0	   447.2	 -4678.8	   335.4
     26.0057	   465.0	   447.2	 -4678.8	   335.4
     26.0392	   438.0	   447.2	 -4678.8	   335.4
     26.0726	   436.0	   447.2	 -4678.8	   335.4
     26.1060	   445.0	   447.2	 -4678.8	   335.4
     26.1394	   447.0	   447.2	 -4678.8	   335.4
     26.1729	   459.0	   447.2	 -4678.8	   335.4
     26.2063	   455.0	   447.2	 -4678.8	   335.4
     26.2397	   489.0	   447.2	 -4678.8	   335.4
     26.2731	   470.0	   447.2	 -4678.8	   335.4
     26.3065	   486.0	   447.2	 -4678.8	   335.4
     26.3400	   447.0	   447.2	 -4678.8	   335.4
     26.3734	   417.0	   447.2	 -4678.8	   335.4
     26.4068	   465.0	   447.2	 -4678.8	   335.4
     26.4402	   486.0	   447.2	 -4678.8	   335.4
     26.4737	   438.0	   447.2	 -4678.8	   335.4
     26.5071	   481.0	   447.2	 -4678.8	   335.4
     26.5405	   437.0	   447.2	 -4678.8	   335.4
     26.5739	   396.0	   447.2	 -4678.8	   335.4
     26.6074	   462.0	   447.2	 -4678.8	   335.4
     26.6408	   417.0	   447.2	 -4678.8	   335.4
     26.6742	   430.0	   447.2	 -4678.8	   335.4
     26.7076	   488.0	   447.2	 -4678.8	   335.4
     26.7410	   395.0	   447.2	 -4678.8	   335.4
     26.7745	   458.0	   447.2	 -4678.8	   335.4
     26.8079	   447.0	   447.2	 -4678.8	   335.4
     26.8413	   438.0	   447.2	 -4678.8	   335.4
     26.8747	   450.0	   447.2	 -4678.8	   335.4
     26.9082	   468.0	   447.2	 -4678.8	   335.4
     26.9416	   425.0	   447.2	 -4678.8	   335.4
     26.9750	   452.0	   447.2	 -4678.8	   335.4
     27.0084	   421.0	   447.2	 -4678.8	   335.4
     27.0418	   444.0	   447.2	 -4678.8	   335.4
     27.0753	   443.0	   447.2	 -4678.8	   335.4
     27.1087	   451.0	   447.2	 -4678.8	   335.4
     27.1421	   441.0	   447.2	 -4678.8	   335.4
     27.1755	   476.0	   447.2	 -4678.8	   335.4
     27.2090	   459.0	   447.2	 -4678.8	   335.4
     27.2424	   441.0	   447.2	 -4678.8	   335.4
     27.2758	   449.0	   447.2	 -4678.8	   335.4
     27.3092	   446.0	   447.2	 -4678.8	   335.4
     27.3426	   402.0	   447.2	 -4678.8	   335.4
     27.3761	   436.0	   447.2	 -4678.8	   335.4
     27.4095	   431.0	   447.2	 -4678.8	   335.4
     27.4429	   410.0	   447.2	 -4678.8	   335.4
     27.4763	   437.0	   447.2	 -4678.8	   335.4
     27.5098	   436.0	   447.2	 -4678.8	   335.4
     27.5432	   462.0	   447.2	 -4678.8	   335.4
     27.5766	   399.0	   447.2	 -4678.8	   335.4
     27.6100	   434.0	   447.2	 -4678.8	   335.4
     27.6434	   413.0	   447.2	 -4678.8	   335.4
     27.6769	   468.0	   447.2	 -4678.8	   335.4
     27.7103	   429.0	   447.2	 -4678.8	   335.4
     27.7437	   400.0	   447.2	 -4678.8	   335.4
     27.7771	   449.0	   447.2	 -4678.8	   335.4
     27.8106	   431.0	   447.2	 -4678.8	   335.4
     27.8440	   480.0	   447.2	 -4678.8	   335.4
     27.8774	   430.0	   447.2	 -4678.8	   335.4
     27.9108	   433.0	   447.2	 -4678.8	   335.4
     27.9443	   419.0	   447.2	 -4678.8	   335.4
     27.9777	   440.0	   447.2	 -4678.8	   335.4
     28.0111	   441.0	   447.2	 -4678.8	   335.4
     28.0445	   449.0	   447.2	 -4678.8	   335.4
     28.0779	   438.0	   447.2	 -4678.8	   335.4
     28.1114	   414.0	   447.2	 -4678.8	   335.4
     28.1448	   429.0	   447.2	 -4678.8	   335.4
     28.1782	   449.0	   447.2	 -4678.8	   335.4
     28.2116	   438.0	   447.2	 -4678.8	   335.4
     28.2451	   416.0	   447.2	 -4678.8	   335.4
     28.2785	   394.0	   447.2	 -4678.8	   335.4
     28.3119	   426.0	   447.2	 -4678.8	   335.4
     28.3453	   437.0	   447.2	 -4678.8	   335.4
     28.3787	   430.0	   447.2	 -4678.8	   335.4
     28.4122	   431.0	   447.2	 -4678.8	   335.4
     28.4456	   410.0	   447.2	 -4678.8	   335.4
     28.4790	   388.0	   447.2	 -4678.8	   335.4
     28.5124	   388.0	   447.2	 -4678.8	   335.4
     28.5459	   436.0	   447.2	 -4678.8	   335.4
     28.5793	   446.0	   447.2	 -4678.8	   335.4
     28.6127	   430.0	   447.2	 -4678.8	   335.4
     28.6461	   460.0	   447.2	 -4678.8	   335.4
     28.6795	   425.0	   447.2	 -4678.8	   335.4
     28.7130	   461.0	   447.2	 -4678.8	   335.4
     28.7464	   439.0	   447.2	 -4678.8	   335.4
     28.7798	   462.0	   447.2	 -4678.8	   335.4
     28.8132	   408.0	   447.2	 -4678.8	   335.4
     28.8467	   456.0	   447.2	 -4678.8	   335.4
     28.8801	   420.0	   447.2	 -4678.8	   335.4
     28.9135	   441.0	   447.2	 -4678.8	   335.4
     28.9469	   423.0	   447.2	 -4678.8	   335.4
     28.9804	   420.0	   447.2	 -4678.8	   335.4
     29.0138	   428.0	   447.2	 -4678.8	   335.4
     29.0472	   437.0	   447.2	 -4678.8	   335.4
     29.0806	   414.0	   447.2	 -4678.8	   335.4
     29.1140	   438.0	   447.2	 -4678.8	   335.4
     29.1475	   437.0	   447.2	 -4678.8	   335.4
     29.1809	   389.0	   447.2	 -4678.8	   335.4
     29.2143	   436.0	   447.2	 -4678.8	   335.4
     29.2477	   397.0	   447.2	 -4678.8	   335.4
     29.2812	   392.0	   447.2	 -4678.8	   335.4
     29.3146	   450.0	   447.2	 -4678.8	   335.4
     29.3480	   431.0	   447.2	 -4678.8	   335.4
     29.3814	   414.0	   447.2	 -4678.8	   335.4
     29.4148	   417.0	   447.2	 -4678.8	   335.4
     29.4483	   440.0	   447.2	 -4678.8	   335.4
     29.4817	   408.0	   447.2	 -4678.8	   335.4
     29.5151	   447.0	   447.2	 -4678.8	   335.4
     29.5485	   436.0	   447.2	 -4678.8	   335.4
     29.5820	   420.0	   447.2	 -4678.8	   335.4
     29.6154	   454.0	   447.2	 -4678.8	   335.4
     29.6488	   423.0	   447.2	 -4678.8	   335.4
     29.6822	   408.0	   447.2	 -4678.8	   335.4
     29.7156	   418.0	   447.2	 -4678.8	   335.4
     29.7491	   427.0	   447.2	 -4678.8	   335.4
     29.7825	   439.0	   447.2	 -4678.8	   335.4
     29.8159	   430.0	   447.2	 -4678.8	   335.4
     29.8493	   451.0	   447.2	 -4678.8	   335.4
     29.8828	   441.0	   447.2	 -4678.8	   335.4
     29.9162	   425.0	   447.2	 -4678.8	   335.4
     29.9496	   456.0	   447.2	 -4678.8	   335.4
     29.9830	   436.0	   447.2	 -4678.8	   335.4
     30.0164	   460.0	   447.2	 -4678.8	   335.4
     30.0499	   415.0	   447.2	 -4678.8	   335.4
     30.0833	   447.0	   447.2	 -4678.8	   335.4
     30.1167	   395.0	   447.2	 -4678.8	   335.4
     30.1501	   410.0	   447.2	 -4678.8	   335.4
     30.1836	   446.0	   447.2	 -4678.8	   335.4
     30.2170	   420.0	   447.2	 -4678.8	   335.4
     30.2504	   425.0	   447.2	 -4678.8	   335.4
     30.2838	   474.0	   447.2	 -4678.8	   335.4
     30.3173	   437.0	   447.2	 -4678.8	   335.4
     30.3507	   416.0	   447.2	 -4678.8	   335.4
     30.3841	   394.0	   447.2	 -4678.8	   335.4
     30.4175	   452.0	   447.2	 -4678.8	   335.4
     30.4509	   397.0	   447.2	 -4678.8	   335.4
     30.4844	   464.0	   447.2	 -4678.8	   335.4
     30.5178	   435.0	   447.2	 -4678.8	   335.4
     30.5512	   418.0	   447.2	 -4678.8	   335.4
     30.5846	   426.0	   447.2	 -4678.8	   335.4
     30.6181	   457.0	   447.2	 -4678.8	   335.4
     30.6515	   408.0	   447.2	 -4678.8	   335.4
     30.6849	   403.0	   447.2	 -4678.8	   335.4
     30.7183	   413.0	   447.2	 -4678.8	   335.4
     30.7517	   425.0	   447.2	 -4678.8	   335.4
     30.7852	   445.0	   447.2	 -4678.8	   335.4
     30.8186	   483.0	   447.2	 -4678.8	   335.4
     30.8520	   446.0	   447.2	 -4678.8	   335.4
     30.8854	   431.0	   447.2	 -4678.8	   335.4
     30.9189	   439.0	   447.2	 -4678.8	   335.4
     30.9523	   430.0	   447.2	 -4678.8	   335.4
     30.9857	   388.0	   447.2	 -4678.8	   335.4
     31.0191	   474.0	   447.2	 -4678.8	   335.4
     31.0525	   420.0	   447.2	 -4678.8	   335.4
     31.0860	   445.0	   447.2	 -4678.8	   335.4
     31.1194	   437.0	   447.2	 -4678.8	   335.4
     31.1528	   449.0	   447.2	 -4678.8	   335.4
     31.1862	   379.0	   447.2	 -4678.8	   335.4
     31.2197	   413.0	   447.2	 -4678.8	   335.4
     31.2531	   467.0	   447.2	 -4678.8	   335.4
     31.2865	   430.0	   447.2	 -4678.8	   335.4
     31.3199	   416.0	   447.2	 -4678.8	   335.4
     31.3534	   411.0	   447.2	 -4678.8	   335.4
     31.3868	   438.0	   447.2	 -4678.8	   335.4
     31.4202	   474.0	   447.2	 -4678.8	   335.4
     31.4536	   402.0	   447.2	 -4678.8	   335.4
     31.4870	   428.0	   447.2	 -4678.8	   335.4
     31.5205	   452.0	   447.2	 -4678.8	   335.4
     31.5539	   459.0	   447.2	 -4678.8	   335.4
     31.5873	   459.0	   447.2	 -4678.8	   335.4
     31.6207	   424.0	   447.2	 -4678.8	   335.4
     31.6542	   464.0	   447.2	 -4678.8	   335.4
     31.6876	   393.0	   447.2	 -4678.8	   335.4
     31.7210	   456.0	   447.2	 -4678.8	   335.4
     31.7544	   458.0	   447.2	 -4678.8	   335.4
     31.7878	   485.0	   447.2	 -4678.8	   335.4
     31.8213	   477.0	   447.2	 -4678.8	   335.4
     31.8547	   438.0	   447.2	 -4678.8	   335.4
     31.8881	   445.0	   447.2	 -4678.8	   335.4
     31.9215	   413.0	   447.2	 -4678.8	   335.4
     31.9550	   423.0	   447.2	 -4678.8	   335.4
     31.9884	   403.0	   447.2	 -4678.8	   335.4
     32.0218	   459.0	   447.2	 -4678.8	   335.4
     32.0552	   423.0	   447.2	 -4678.8	   335.4
     32.0886	   455.0	   447.2	 -4678.8	   335.4
     32.1221	   428.0	   447.2	 -4678.8	   335.4
     32.1555	   435.0	   447.2	 -4678.8	   335.4
     32.1889	   433.0	   447.2	 -4678.8	   335.4
     32.2223	   400.0	   447.2	 -4678.8	   335.4
     32.2558	   456.0	   447.2	 -4678.8	   335.4
     32.2892	   430.0	   447.2	 -4678.8	   335.4
     32.3226	   420.0	   447.2	 -4678.8	   335.4
     32.3560	   417.0	   447.2	 -4678.8	   335.4
     32.3895	   436.0	   447.2	 -4678.8	   335.4
     32.4229	   447.0	   447.2	 -4678.8	   335.4
     32.4563	   415.0	   447.2	 -4678.8	   335.4
     32.4897	   434.0	   447.2	 -4678.8	   335.4
     32.5231	   455.0	   447.2	 -4678.8	   335.4
     32.5566	   368.0	   447.2	 -4678.8	   335.4
     32.5900	   410.0	   447.2	 -4678.8	   335.4
     32.6234	   436.0	   447.2	 -4678.8	   335.4
     32.6568	   420.0	   447.2	 -4678.8	   335.4
     32.6903	   460.0	   447.2	 -4678.8	   335.4
     32.7237	   438.0	   447.2	 -4678.8	   335.4
     32.7571	   436.0	   447.2	 -4678.8	   335.4
     32.7905	   451.0	   447.2	 -4678.8	   335.4
     32.8239	   435.0	   447.2	 -4678.8	   335.4
     32.8574	   434.0	   447.2	 -4678.8	   335.4
     32.8908	   464.0	   447.2	 -4678.8	   335.4
     32.9242	   433.0	   447.2	 -4678.8	   335.4
     32.9576	   408.0	   447.2	 -4678.8	   335.4
     32.9911	   443.0	   447.2	 -4678.8	   335.4
     33.0245	   379.0	   447.2	 -4678.8	   335.4
     33.0579	   416.0	   447.2	 -4678.8	   335.4
     33.0913	   437.0	   447.2	 -4678.8	   335.4
     33.1247	   417.0	   447.2	 -4678.8	   335.4
     33.1582	   437.0	   447.2	 -4678.8	   335.4
     33.1916	   454.0	   447.2	 -4678.8	   335.4
     33.2250	   428.0	   447.2	 -4678.8	   335.4
     33.2584	   386.0	   447.2	 -4678.8	   335.4
     33.2919	   402.0	   447.2	 -4678.8	   335.4
     33.3253	   458.0	   447.2	 -4678.8	   335.4
     33.3587	   433.0	   447.2	 -4678.8	   335.4
     33.3921	   433.0	   447.2	 -4678.8	   335.4
