 Cr2O3   Chi2:  1.9370  CELL:    4.95841   4.95841  13.59449   90.0000   90.0000  120.0000   SPGR: R -3 c                 TEMP:      0.00
  1   2394     1.54060     1.54439     0.00000    -0.04936     0.00000    0
    88     0     1
       0.00000      20.00000
 2Theta	Yobs	Ycal	Yobs-Ycal	Backg	Posr	(hkl)	K
     20.0031	  31.000	  31.871	-146.871	  30.521
     20.0365	  45.000	  31.848	-132.848	  30.499
     20.0700	  37.000	  31.826	-140.826	  30.477
     20.1034	  29.000	  31.804	-148.804	  30.455
     20.1368	  26.000	  31.782	-151.782	  30.433
     20.1702	  24.000	  31.760	-153.760	  30.410
     20.2036	  26.000	  31.737	-151.737	  30.388
     20.2371	  21.000	  31.715	-156.715	  30.366
     20.2705	  28.000	  31.693	-149.693	  30.343
     20.3039	  31.000	  31.670	-146.670	  30.321
     20.3373	  33.000	  31.648	-144.648	  30.298
     20.3708	  31.000	  31.625	-146.625	  30.276
     20.4042	  20.000	  31.603	-157.603	  30.253
     20.4376	  28.000	  31.580	-149.580	  30.231
     20.4710	  30.000	  31.557	-147.557	  30.208
     20.5044	  30.000	  31.535	-147.535	  30.185
     20.5379	  25.000	  31.512	-152.512	  30.163
     20.5713	  27.000	  31.489	-150.489	  30.140
     20.6047	  38.000	  31.466	-139.466	  30.117
     20.6381	  28.000	  31.443	-149.443	  30.094
     20.6716	  26.000	  31.421	-151.421	  30.071
     20.7050	  24.000	  31.398	-153.398	  30.048
     20.7384	  33.000	  31.375	-144.375	  30.025
     20.7718	  31.000	  31.352	-146.352	  30.002
     20.8053	  24.000	  31.329	-153.329	  29.979
     20.8387	  32.000	  31.306	-145.306	  29.956
     20.8721	  28.000	  31.282	-149.282	  29.933
     20.9055	  38.000	  31.259	-139.259	  29.910
     20.9389	  28.000	  31.236	-149.236	  29.887
     20.9724	  21.000	  31.213	-156.213	  29.864
     21.0058	  38.000	  31.190	-139.190	  29.840
     21.0392	  28.000	  31.166	-149.166	  29.817
     21.0726	  39.000	  31.143	-138.143	  29.794
     21.1061	  21.000	  31.120	-156.120	  29.770
     21.1395	  33.000	  31.096	-144.096	  29.747
     21.1729	  38.000	  31.073	-139.073	  29.723
     21.2063	  36.000	  31.049	-141.049	  29.700
     21.2397	  26.000	  31.026	-151.026	  29.676
     21.2732	  28.000	  31.002	-149.002	  29.653
     21.3066	  32.000	  30.979	-144.979	  29.629
     21.3400	  15.000	  30.955	-161.955	  29.606
     21.3734	  27.000	  30.931	-149.931	  29.582
     21.4069	  33.000	  30.908	-143.908	  29.558
     21.4403	  20.000	  30.884	-156.884	  29.535
     21.4737	  31.000	  30.860	-145.860	  29.511
     21.5071	  37.000	  30.836	-139.836	  29.487
     21.5405	  41.000	  30.812	-135.812	  29.463
     21.5740	  24.000	  30.789	-152.789	  29.439
     21.6074	  31.000	  30.918	-145.918	  29.415
     21.6408	  38.000	  30.898	-138.898	  29.392
     21.6742	  31.000	  30.955	-145.955	  29.368
     21.7077	  30.000	  30.936	-146.936	  29.344
     21.7411	  26.000	  30.918	-150.918	  29.320
     21.7745	  36.000	  30.901	-140.900	  29.295
     21.8079	  32.000	  30.883	-144.883	  29.271
     21.8414	  33.000	  30.865	-143.865	  29.247
     21.8748	  25.000	  30.848	-151.848	  29.223
     21.9082	  34.000	  30.831	-142.831	  29.199
     21.9416	  18.000	  30.815	-158.815	  29.175
     21.9750	  38.000	  30.798	-138.798	  29.150
     22.0085	  37.000	  30.782	-139.782	  29.126
     22.0419	  40.000	  30.766	-136.766	  29.102
     22.0753	  26.000	  30.751	-150.751	  29.077
     22.1087	  31.000	  30.736	-145.736	  29.053
     22.1422	  27.000	  30.721	-149.721	  29.029
     22.1756	  28.000	  30.706	-148.706	  29.004
     22.2090	  25.000	  30.692	-151.692	  28.980
     22.2424	  31.000	  30.679	-145.679	  28.955
     22.2758	  31.000	  30.666	-145.666	  28.931
     22.3093	  21.000	  30.653	-155.653	  28.906
     22.3427	  15.000	  30.641	-161.641	  28.882
     22.3761	  31.000	  30.630	-145.630	  28.857
     22.4095	  26.000	  30.619	-150.619	  28.832
     22.4430	  34.000	  30.609	-142.609	  28.808
     22.4764	  33.000	  30.599	-143.599	  28.783
     22.5098	  21.000	  30.591	-155.591	  28.758
     22.5432	  25.000	  30.583	-151.583	  28.733
     22.5766	  26.000	  30.576	-150.576	  28.709
     22.6101	  26.000	  30.570	-150.570	  28.684
     22.6435	  24.000	  30.564	-152.564	  28.659
     22.6769	  30.000	  30.561	-146.561	  28.634
     22.7103	  31.000	  30.558	-145.558	  28.609
     22.7438	  27.000	  30.556	-149.556	  28.584
     22.7772	  33.000	  30.556	-143.556	  28.559
     22.8106	  27.000	  30.557	-149.557	  28.534
     22.8440	  24.000	  30.560	-152.560	  28.509
     22.8774	  30.000	  30.565	-146.565	  28.484
     22.9109	  26.000	  30.571	-150.571	  28.459
     22.9443	  29.000	  30.580	-147.580	  28.434
     22.9777	  27.000	  30.591	-149.591	  28.409
     23.0111	  22.000	  30.604	-154.604	  28.384
     23.0446	  28.000	  30.620	-148.620	  28.359
     23.0780	  29.000	  30.639	-147.639	  28.334
     23.1114	  34.000	  30.661	-142.661	  28.308
     23.1448	  30.000	  30.687	-146.687	  28.283
     23.1783	  24.000	  30.717	-152.717	  28.258
     23.2117	  36.000	  30.751	-140.751	  28.233
     23.2451	  28.000	  30.790	-148.790	  28.207
     23.2785	  27.000	  30.834	-149.834	  28.182
     23.3119	  25.000	  30.885	-151.885	  28.157
     23.3454	  29.000	  30.942	-147.942	  28.131
     23.3788	  29.000	  31.007	-148.007	  28.106
     23.4122	  33.000	  31.081	-144.081	  28.080
     23.4456	  30.000	  31.164	-147.164	  28.055
     23.4791	  34.000	  31.258	-143.258	  28.029
     23.5125	  29.000	  31.365	-148.365	  28.004
     23.5459	  29.000	  31.487	-148.487	  27.978
     23.5793	  36.000	  31.625	-141.625	  27.953
     23.6127	  28.000	  31.782	-149.782	  27.927
     23.6462	  30.000	  31.962	-147.962	  27.902
     23.6796	  32.000	  32.168	-146.168	  27.876
     23.7130	  42.000	  32.406	-136.406	  27.851
     23.7464	  20.000	  32.679	-158.679	  27.825
     23.7799	  33.000	  32.997	-145.997	  27.799
     23.8133	  32.000	  33.367	-147.367	  27.774
     23.8467	  49.000	  33.802	-130.802	  27.748
     23.8801	  37.000	  34.315	-143.315	  27.722
     23.9135	  33.000	  34.926	-147.926	  27.696
     23.9470	  37.000	  35.659	-144.659	  27.671
     23.9804	  28.000	  36.549	-154.549	  27.645
     24.0138	  29.000	  37.640	-154.640	  27.619
     24.0472	  41.000	  38.996	-143.996	  27.593
     24.0807	  40.000	  40.706	-146.706	  27.567
     24.1141	  50.000	  42.901	-138.901	  27.541
     24.1475	  42.000	  45.781	-149.781	  27.515
     24.1809	  50.000	  49.683	-145.683	  27.490
     24.2144	  64.000	  55.277	-137.277	  27.464
     24.2478	  70.000	  64.132	-140.132	  27.438
     24.2812	  73.000	  79.922	-152.922	  27.412
     24.3146	 124.000	 109.860	-131.860	  27.386
     24.3480	 158.000	 164.273	-152.273	  27.360
     24.3815	 217.000	 251.082	-180.082	  27.334
     24.4149	 364.000	 362.275	-144.275	  27.308
     24.4483	 489.000	 451.629	-108.629	  27.282
     24.4817	 467.000	 460.555	-139.555	  27.255
     24.5152	 379.000	 396.647	-163.647	  27.229
     24.5486	 311.000	 295.872	-130.872	  27.203
     24.5820	 187.000	 200.285	-159.285	  27.177
     24.6154	 116.000	 133.006	-163.006	  27.151
     24.6488	  95.000	  92.885	-143.885	  27.125
     24.6823	  66.000	  70.905	-150.905	  27.099
     24.7157	  53.000	  58.878	-151.878	  27.072
     24.7491	  66.000	  51.746	-131.746	  27.046
     24.7825	  60.000	  47.030	-133.030	  27.020
     24.8160	  55.000	  43.644	-134.644	  26.994
     24.8494	  36.000	  41.093	-151.093	  26.967
     24.8828	  32.000	  39.116	-153.116	  26.941
     24.9162	  43.000	  37.552	-140.552	  26.915
     24.9496	  32.000	  36.291	-150.291	  26.889
     24.9831	  53.000	  35.260	-128.260	  26.862
     25.0165	  27.000	  34.405	-153.405	  26.836
     25.0499	  30.000	  33.688	-149.688	  26.809
     25.0833	  31.000	  33.079	-148.079	  26.783
     25.1168	  37.000	  32.557	-141.557	  26.757
     25.1502	  34.000	  32.106	-144.106	  26.730
     25.1836	  30.000	  31.713	-147.713	  26.704
     25.2170	  33.000	  31.367	-144.367	  26.677
     25.2505	  25.000	  31.062	-152.062	  26.651
     25.2839	  33.000	  30.790	-143.790	  26.625
     25.3173	  34.000	  30.546	-142.546	  26.598
     25.3507	  17.000	  30.326	-159.326	  26.572
     25.3841	  30.000	  30.128	-146.128	  26.545
     25.4176	  28.000	  29.946	-147.946	  26.519
     25.4510	  32.000	  29.781	-143.781	  26.492
     25.4844	  32.000	  29.629	-143.629	  26.465
     25.5178	  29.000	  29.488	-146.488	  26.439
     25.5513	  26.000	  29.359	-149.359	  26.412
     25.5847	  37.000	  29.238	-138.238	  26.386
     25.6181	  40.000	  29.125	-135.125	  26.359
     25.6515	  36.000	  29.019	-139.019	  26.333
     25.6849	  20.000	  28.920	-154.920	  26.306
     25.7184	  28.000	  28.827	-146.827	  26.279
     25.7518	  20.000	  28.738	-154.738	  26.253
     25.7852	  34.000	  28.655	-140.655	  26.226
     25.8186	  27.000	  28.575	-147.575	  26.199
     25.8521	  26.000	  28.500	-148.500	  26.173
     25.8855	  40.000	  28.427	-134.427	  26.146
     25.9189	  28.000	  28.358	-146.358	  26.119
     25.9523	  20.000	  28.292	-154.292	  26.093
     25.9857	  26.000	  28.228	-148.228	  26.066
     26.0192	  19.000	  28.166	-155.166	  26.039
     26.0526	  20.000	  28.107	-154.107	  26.012
     26.0860	  29.000	  28.050	-145.050	  25.986
     26.1194	  30.000	  27.994	-143.994	  25.959
     26.1529	  25.000	  27.941	-148.941	  25.932
     26.1863	  31.000	  27.888	-142.888	  25.905
     26.2197	  22.000	  27.838	-151.838	  25.879
     26.2531	  36.000	  27.788	-137.788	  25.852
     26.2865	  17.000	  27.740	-156.740	  25.825
     26.3200	  20.000	  27.693	-153.693	  25.798
     26.3534	  29.000	  27.647	-144.647	  25.771
     26.3868	  26.000	  27.602	-147.602	  25.744
     26.4202	  30.000	  27.558	-143.558	  25.718
     26.4537	  39.000	  27.514	-134.514	  25.691
     26.4871	  19.000	  27.472	-154.472	  25.664
     26.5205	  26.000	  27.430	-147.430	  25.637
     26.5539	  31.000	  27.389	-142.389	  25.610
     26.5874	  24.000	  27.349	-149.349	  25.583
     26.6208	  26.000	  27.309	-147.309	  25.556
     26.6542	  18.000	  27.270	-155.270	  25.529
     26.6876	  24.000	  27.231	-149.231	  25.502
     26.7210	  28.000	  27.193	-145.193	  25.476
     26.7545	  27.000	  27.156	-146.156	  25.449
     26.7879	  17.000	  27.118	-156.118	  25.422
     26.8213	  17.000	  27.082	-156.082	  25.395
     26.8547	  22.000	  27.045	-151.045	  25.368
     26.8882	  24.000	  27.009	-149.009	  25.341
     26.9216	  17.000	  26.974	-155.974	  25.314
     26.9550	  21.000	  26.938	-151.938	  25.287
     26.9884	  30.000	  26.904	-142.904	  25.260
     27.0218	  26.000	  26.869	-146.869	  25.233
     27.0553	  18.000	  26.834	-154.835	  25.206
     27.0887	  25.000	  26.800	-147.800	  25.179
     27.1221	  30.000	  26.767	-142.767	  25.152
     27.1555	  27.000	  26.733	-145.733	  25.125
     27.1890	  31.000	  26.700	-141.700	  25.098
     27.2224	  25.000	  26.667	-147.667	  25.071
     27.2558	  26.000	  26.634	-146.634	  25.044
     27.2892	  28.000	  26.601	-144.601	  25.017
     27.3226	  26.000	  26.568	-146.568	  24.990
     27.3561	  20.000	  26.536	-152.536	  24.963
     27.3895	  22.000	  26.285	-150.285	  24.936
     27.4229	  28.000	  26.258	-144.258	  24.909
     27.4563	  21.000	  26.231	-151.231	  24.882
     27.4898	  20.000	  26.204	-152.204	  24.855
     27.5232	  33.000	  26.177	-139.177	  24.828
     27.5566	  24.000	  26.150	-148.150	  24.801
     27.5900	  28.000	  26.123	-144.123	  24.773
     27.6234	  38.000	  26.096	-134.096	  24.746
     27.6569	  28.000	  26.069	-144.069	  24.719
     27.6903	  30.000	  26.041	-142.041	  24.692
     27.7237	  28.000	  26.014	-144.014	  24.665
     27.7571	  38.000	  25.987	-133.987	  24.638
     27.7906	  34.000	  25.960	-137.960	  24.611
     27.8240	  21.000	  25.933	-150.933	  24.584
     27.8574	  20.000	  25.906	-151.906	  24.557
     27.8908	  29.000	  25.879	-142.879	  24.530
     27.9243	  25.000	  25.852	-146.852	  24.503
     27.9577	  30.000	  25.825	-141.825	  24.475
     27.9911	  29.000	  25.798	-142.798	  24.448
     28.0245	  30.000	  25.770	-141.770	  24.421
     28.0579	  39.000	  25.743	-132.743	  24.394
     28.0914	  17.000	  25.716	-154.716	  24.367
     28.1248	  18.000	  25.689	-153.689	  24.340
     28.1582	  28.000	  25.662	-143.662	  24.313
     28.1916	  29.000	  25.635	-142.635	  24.286
     28.2251	  34.000	  25.608	-137.608	  24.259
     28.2585	  31.000	  25.581	-140.581	  24.231
     28.2919	  31.000	  25.554	-140.554	  24.204
     28.3253	  32.000	  25.526	-139.526	  24.177
     28.3587	  32.000	  25.499	-139.499	  24.150
     28.3922	  28.000	  25.472	-143.472	  24.123
     28.4256	  38.000	  25.445	-133.445	  24.096
     28.4590	  25.000	  25.418	-146.418	  24.069
     28.4924	  28.000	  25.391	-143.391	  24.042
     28.5259	  27.000	  25.364	-144.364	  24.015
     28.5593	  34.000	  25.337	-137.337	  23.987
     28.5927	  27.000	  25.309	-144.309	  23.960
     28.6261	  29.000	  25.282	-142.282	  23.933
     28.6595	  25.000	  25.255	-146.255	  23.906
     28.6930	  36.000	  25.228	-135.228	  23.879
     28.7264	  39.000	  25.201	-132.201	  23.852
     28.7598	  34.000	  25.174	-137.174	  23.825
     28.7932	  32.000	  25.147	-139.147	  23.798
     28.8267	  40.000	  25.120	-131.120	  23.770
     28.8601	  31.000	  25.092	-140.092	  23.743
     28.8935	  41.000	  25.065	-130.065	  23.716
     28.9269	  33.000	  25.038	-138.038	  23.689
     28.9604	  29.000	  25.011	-142.011	  23.662
     28.9938	  31.000	  24.984	-139.984	  23.635
     29.0272	  39.000	  24.957	-131.957	  23.608
     29.0606	  19.000	  24.930	-151.930	  23.581
     29.0940	  28.000	  24.903	-142.903	  23.553
     29.1275	  28.000	  24.876	-142.876	  23.526
     29.1609	  40.000	  24.848	-130.848	  23.499
     29.1943	  41.000	  24.821	-129.821	  23.472
     29.2277	  39.000	  24.794	-131.794	  23.445
     29.2612	  32.000	  24.767	-138.767	  23.418
     29.2946	  30.000	  24.740	-140.740	  23.391
     29.3280	  31.000	  24.713	-139.713	  23.364
     29.3614	  17.000	  24.686	-153.686	  23.337
     29.3948	  33.000	  24.659	-137.659	  23.310
     29.4283	  31.000	  24.632	-139.632	  23.282
     29.4617	  50.000	  24.605	-120.605	  23.255
     29.4951	  40.000	  24.577	-130.577	  23.228
     29.5285	  42.000	  24.550	-128.550	  23.201
     29.5620	  29.000	  24.523	-141.523	  23.174
     29.5954	  29.000	  24.496	-141.496	  23.147
     29.6288	  45.000	  24.469	-125.469	  23.120
     29.6622	  49.000	  24.442	-121.442	  23.093
     29.6956	  38.000	  24.415	-132.415	  23.066
     29.7291	  28.000	  24.388	-142.388	  23.039
     29.7625	  49.000	  24.361	-121.361	  23.012
     29.7959	  40.000	  24.334	-130.334	  22.985
     29.8293	  45.000	  24.307	-125.307	  22.958
     29.8628	  44.000	  24.280	-126.280	  22.931
     29.8962	  25.000	  24.253	-145.253	  22.904
     29.9296	  36.000	  24.226	-134.226	  22.877
     29.9630	  48.000	  24.199	-122.199	  22.849
     29.9964	  45.000	  24.172	-125.172	  22.822
     30.0299	  50.000	  24.145	-120.145	  22.795
     30.0633	  57.000	  24.118	-113.118	  22.768
     30.0967	  40.000	  24.091	-130.091	  22.741
     30.1301	  50.000	  24.064	-120.064	  22.714
     30.1636	  51.000	  24.037	-119.037	  22.687
     30.1970	  53.000	  24.010	-117.010	  22.660
     30.2304	  54.000	  23.983	-115.983	  22.633
     30.2638	  56.000	  23.956	-113.956	  22.606
     30.2973	  41.000	  23.929	-128.929	  22.580
     30.3307	  54.000	  23.902	-115.902	  22.553
     30.3641	  51.000	  23.875	-118.875	  22.526
     30.3975	  51.000	  23.848	-118.848	  22.499
     30.4309	  51.000	  23.821	-118.821	  22.472
     30.4644	  54.000	  23.794	-115.794	  22.445
     30.4978	  52.000	  23.767	-117.767	  22.418
     30.5312	  51.000	  23.740	-118.740	  22.391
     30.5646	  39.000	  23.713	-130.713	  22.364
     30.5981	  63.000	  23.686	-106.686	  22.337
     30.6315	  38.000	  23.659	-131.659	  22.310
     30.6649	  41.000	  23.632	-128.632	  22.283
     30.6983	  45.000	  23.874	-124.874	  22.256
     30.7317	  58.000	  23.854	-111.854	  22.229
     30.7652	  53.000	  23.966	-116.966	  22.203
     30.7986	  45.000	  23.949	-124.949	  22.176
     30.8320	  43.000	  23.932	-126.932	  22.149
     30.8654	  58.000	  23.916	-111.916	  22.122
     30.8989	  29.000	  23.901	-140.901	  22.095
     30.9323	  49.000	  23.885	-120.885	  22.068
     30.9657	  41.000	  23.871	-128.871	  22.041
     30.9991	  56.000	  23.856	-113.856	  22.015
     31.0325	  33.000	  23.842	-136.842	  21.988
     31.0660	  39.000	  23.829	-130.829	  21.961
     31.0994	  37.000	  23.816	-132.816	  21.934
     31.1328	  28.000	  23.804	-141.804	  21.907
     31.1662	  34.000	  23.793	-135.793	  21.881
     31.1997	  43.000	  23.782	-126.782	  21.854
     31.2331	  27.000	  23.771	-142.771	  21.827
     31.2665	  45.000	  23.762	-124.762	  21.800
     31.2999	  36.000	  23.753	-133.753	  21.774
     31.3334	  41.000	  23.745	-128.745	  21.747
     31.3668	  30.000	  23.738	-139.738	  21.720
     31.4002	  31.000	  23.732	-138.732	  21.693
     31.4336	  30.000	  23.727	-139.727	  21.667
     31.4670	  33.000	  23.723	-136.723	  21.640
     31.5005	  25.000	  23.720	-144.720	  21.613
     31.5339	  31.000	  23.718	-138.718	  21.586
     31.5673	  38.000	  23.718	-131.718	  21.560
     31.6007	  24.000	  23.719	-145.719	  21.533
     31.6342	  38.000	  23.721	-131.721	  21.507
     31.6676	  38.000	  23.725	-131.725	  21.480
     31.7010	  37.000	  23.730	-132.730	  21.453
     31.7344	  26.000	  23.737	-143.737	  21.427
     31.7678	  30.000	  23.746	-139.746	  21.400
     31.8013	  34.000	  23.757	-135.757	  21.373
     31.8347	  25.000	  23.771	-144.771	  21.347
     31.8681	  44.000	  23.786	-125.786	  21.320
     31.9015	  37.000	  23.805	-132.805	  21.294
     31.9350	  40.000	  23.826	-129.826	  21.267
     31.9684	  34.000	  23.850	-135.850	  21.240
     32.0018	  27.000	  23.877	-142.877	  21.214
     32.0352	  41.000	  23.907	-128.907	  21.187
     32.0686	  29.000	  23.942	-140.942	  21.161
     32.1021	  38.000	  23.981	-131.981	  21.134
     32.1355	  34.000	  24.024	-136.024	  21.108
     32.1689	  25.000	  24.072	-145.072	  21.081
     32.2023	  26.000	  24.126	-144.126	  21.055
     32.2358	  34.000	  24.186	-136.186	  21.028
     32.2692	  25.000	  24.253	-145.253	  21.002
     32.3026	  28.000	  24.326	-142.326	  20.976
     32.3360	  36.000	  24.409	-134.409	  20.949
     32.3694	  31.000	  24.500	-139.500	  20.923
     32.4029	  27.000	  24.601	-143.601	  20.896
     32.4363	  31.000	  24.713	-139.713	  20.870
     32.4697	  28.000	  24.839	-142.839	  20.844
     32.5031	  41.000	  24.978	-129.978	  20.817
     32.5366	  33.000	  25.133	-138.133	  20.791
     32.5700	  30.000	  25.307	-141.307	  20.764
     32.6034	  26.000	  25.502	-145.502	  20.738
     32.6368	  36.000	  25.720	-135.720	  20.712
     32.6703	  46.000	  25.965	-125.965	  20.686
     32.7037	  45.000	  26.242	-127.242	  20.659
     32.7371	  42.000	  26.555	-130.555	  20.633
     32.7705	  28.000	  26.910	-144.910	  20.607
     32.8039	  38.000	  27.315	-135.315	  20.580
     32.8374	  38.000	  27.779	-135.779	  20.554
     32.8708	  29.000	  28.313	-145.313	  20.528
     32.9042	  28.000	  28.930	-146.930	  20.502
     32.9376	  48.000	  29.649	-127.649	  20.476
     32.9711	  46.000	  30.491	-130.491	  20.449
     33.0045	  43.000	  31.486	-134.486	  20.423
     33.0379	  41.000	  32.670	-137.671	  20.397
     33.0713	  40.000	  34.095	-140.095	  20.371
     33.1047	  37.000	  35.826	-144.826	  20.345
     33.1382	  64.000	  37.955	-119.955	  20.319
     33.1716	  53.000	  40.613	-133.613	  20.293
     33.2050	  68.000	  43.985	-121.985	  20.266
     33.2384	  65.000	  48.357	-129.357	  20.240
     33.2719	  62.000	  54.474	-138.474	  20.214
     33.3053	  67.000	  62.782	-141.782	  20.188
     33.3387	  91.000	  75.523	-130.523	  20.162
     33.3721	 107.000	  96.802	-135.802	  20.136
