 Cr2O3   Chi2:  1.6576  CELL:    4.95856   4.95856  13.59383   90.0000   90.0000  120.0000   SPGR: R -3 c                 TEMP:      0.00
  1   2394     1.54060     1.54439     0.00000    -0.04253     0.00000    0
    88     0     1
       0.00000      20.00000
 2Theta	Yobs	Ycal	Yobs-Ycal	Backg	Posr	(hkl)	K
     20.0031	  33.000	  34.068	-225.068	  33.298
     20.0365	  30.000	  34.005	-228.005	  33.235
     20.0700	  28.000	  33.941	-229.941	  33.171
     20.1034	  28.000	  33.878	-229.878	  33.108
     20.1368	  30.000	  33.815	-227.815	  33.045
     20.1702	  38.000	  33.752	-219.752	  32.982
     20.2036	  40.000	  33.689	-217.689	  32.919
     20.2371	  30.000	  33.626	-227.626	  32.856
     20.2705	  31.000	  33.563	-226.563	  32.793
     20.3039	  29.000	  33.501	-228.501	  32.731
     20.3373	  25.000	  33.438	-232.438	  32.668
     20.3708	  27.000	  33.376	-230.376	  32.606
     20.4042	  27.000	  33.313	-230.313	  32.543
     20.4376	  39.000	  33.251	-218.251	  32.481
     20.4710	  24.000	  33.189	-233.189	  32.419
     20.5044	  28.000	  33.127	-229.127	  32.357
     20.5379	  28.000	  33.065	-229.065	  32.295
     20.5713	  37.000	  33.003	-220.003	  32.233
     20.6047	  27.000	  32.941	-229.941	  32.171
     20.6381	  29.000	  32.880	-227.880	  32.109
     20.6716	  30.000	  32.818	-226.818	  32.048
     20.7050	  33.000	  32.756	-223.756	  31.986
     20.7384	  42.000	  32.695	-214.695	  31.925
     20.7718	  28.000	  32.634	-228.634	  31.863
     20.8053	  29.000	  32.573	-227.573	  31.802
     20.8387	  22.000	  32.511	-234.511	  31.741
     20.8721	  22.000	  32.450	-234.450	  31.680
     20.9055	  27.000	  32.389	-229.389	  31.619
     20.9389	  26.000	  32.329	-230.329	  31.558
     20.9724	  26.000	  32.268	-230.268	  31.498
     21.0058	  32.000	  32.207	-224.207	  31.437
     21.0392	  28.000	  32.147	-228.147	  31.377
     21.0726	  17.000	  32.086	-239.086	  31.316
     21.1061	  19.000	  32.026	-237.026	  31.256
     21.1395	  21.000	  31.966	-234.966	  31.196
     21.1729	  19.000	  31.906	-236.906	  31.135
     21.2063	  28.000	  31.846	-227.846	  31.075
     21.2397	  28.000	  31.786	-227.786	  31.015
     21.2732	  34.000	  31.726	-221.726	  30.955
     21.3066	  28.000	  31.666	-227.666	  30.896
     21.3400	  30.000	  31.606	-225.606	  30.836
     21.3734	  18.000	  31.547	-237.547	  30.776
     21.4069	  18.000	  31.487	-237.487	  30.717
     21.4403	  26.000	  31.428	-229.428	  30.658
     21.4737	  24.000	  31.369	-231.369	  30.598
     21.5071	  38.000	  31.309	-217.309	  30.539
     21.5405	  18.000	  31.250	-237.250	  30.480
     21.5740	  26.000	  31.191	-229.191	  30.421
     21.6074	  28.000	  31.264	-227.264	  30.362
     21.6408	  25.000	  31.208	-230.208	  30.303
     21.6742	  29.000	  31.219	-226.219	  30.245
     21.7077	  27.000	  31.165	-228.165	  30.186
     21.7411	  28.000	  31.112	-227.112	  30.127
     21.7745	  20.000	  31.059	-235.059	  30.069
     21.8079	  30.000	  31.006	-225.006	  30.011
     21.8414	  20.000	  30.953	-234.953	  29.952
     21.8748	  28.000	  30.901	-226.901	  29.894
     21.9082	  29.000	  30.849	-225.849	  29.836
     21.9416	  16.000	  30.798	-238.798	  29.778
     21.9750	  27.000	  30.747	-227.747	  29.720
     22.0085	  40.000	  30.696	-214.696	  29.662
     22.0419	  22.000	  30.645	-232.645	  29.605
     22.0753	  29.000	  30.595	-225.595	  29.547
     22.1087	  25.000	  30.546	-229.546	  29.490
     22.1422	  34.000	  30.497	-220.497	  29.432
     22.1756	  25.000	  30.448	-229.448	  29.375
     22.2090	  16.000	  30.400	-238.400	  29.318
     22.2424	  24.000	  30.352	-230.352	  29.261
     22.2758	  24.000	  30.305	-230.305	  29.203
     22.3093	  24.000	  30.258	-230.258	  29.147
     22.3427	  27.000	  30.212	-227.212	  29.090
     22.3761	  26.000	  30.166	-228.166	  29.033
     22.4095	  21.000	  30.122	-233.122	  28.976
     22.4430	  16.000	  30.077	-238.077	  28.920
     22.4764	  24.000	  30.034	-230.034	  28.863
     22.5098	  30.000	  29.991	-223.991	  28.807
     22.5432	  26.000	  29.949	-227.949	  28.750
     22.5766	  24.000	  29.908	-229.908	  28.694
     22.6101	  19.000	  29.868	-234.868	  28.638
     22.6435	  26.000	  29.829	-227.829	  28.582
     22.6769	  22.000	  29.791	-231.791	  28.526
     22.7103	  24.000	  29.754	-229.754	  28.470
     22.7438	  22.000	  29.718	-231.718	  28.415
     22.7772	  28.000	  29.684	-225.684	  28.359
     22.8106	  26.000	  29.650	-227.650	  28.303
     22.8440	  21.000	  29.619	-232.619	  28.248
     22.8774	  30.000	  29.589	-223.589	  28.193
     22.9109	  32.000	  29.560	-221.560	  28.137
     22.9443	  32.000	  29.534	-221.534	  28.082
     22.9777	  25.000	  29.509	-228.509	  28.027
     23.0111	  30.000	  29.487	-223.487	  27.972
     23.0446	  27.000	  29.467	-226.467	  27.917
     23.0780	  16.000	  29.450	-237.450	  27.862
     23.1114	  20.000	  29.436	-233.436	  27.807
     23.1448	  16.000	  29.425	-237.424	  27.753
     23.1783	  28.000	  29.417	-225.417	  27.698
     23.2117	   8.000	  29.413	-245.413	  27.644
     23.2451	  30.000	  29.413	-223.413	  27.589
     23.2785	  16.000	  29.418	-237.418	  27.535
     23.3119	  30.000	  29.429	-223.429	  27.481
     23.3454	  19.000	  29.445	-234.445	  27.427
     23.3788	  20.000	  29.468	-233.468	  27.373
     23.4122	  27.000	  29.498	-226.498	  27.319
     23.4456	  22.000	  29.536	-231.536	  27.265
     23.4791	  25.000	  29.584	-228.584	  27.211
     23.5125	  25.000	  29.643	-228.643	  27.157
     23.5459	  18.000	  29.714	-235.714	  27.104
     23.5793	  33.000	  29.800	-220.800	  27.050
     23.6127	  34.000	  29.902	-219.902	  26.997
     23.6462	  31.000	  30.022	-223.022	  26.944
     23.6796	  41.000	  30.165	-213.165	  26.891
     23.7130	  31.000	  30.335	-223.335	  26.837
     23.7464	  26.000	  30.535	-228.535	  26.784
     23.7799	  25.000	  30.772	-229.772	  26.731
     23.8133	  31.000	  31.054	-224.054	  26.679
     23.8467	  19.000	  31.390	-236.390	  26.626
     23.8801	  30.000	  31.792	-225.792	  26.573
     23.9135	  28.000	  32.276	-228.276	  26.521
     23.9470	  41.000	  32.864	-215.864	  26.468
     23.9804	  21.000	  33.583	-236.583	  26.416
     24.0138	  29.000	  34.471	-229.471	  26.363
     24.0472	  42.000	  35.581	-217.581	  26.311
     24.0807	  38.000	  36.990	-222.990	  26.259
     24.1141	  39.000	  38.807	-223.807	  26.207
     24.1475	  33.000	  41.198	-232.198	  26.155
     24.1809	  41.000	  44.424	-227.424	  26.103
     24.2144	  51.000	  48.934	-221.934	  26.051
     24.2478	  64.000	  55.726	-215.726	  26.000
     24.2812	  68.000	  67.751	-223.751	  25.948
     24.3146	  91.000	  93.867	-226.867	  25.896
     24.3480	 144.000	 154.164	-234.164	  25.845
     24.3815	 273.000	 275.545	-226.545	  25.794
     24.4149	 469.000	 463.025	-218.025	  25.742
     24.4483	 662.000	 647.438	-209.438	  25.691
     24.4817	 691.000	 693.170	-226.170	  25.640
     24.5152	 585.000	 593.398	-232.398	  25.589
     24.5486	 434.000	 419.286	-209.286	  25.538
     24.5820	 247.000	 254.036	-231.036	  25.487
     24.6154	 136.000	 146.823	-234.823	  25.437
     24.6488	  75.000	  91.477	-240.477	  25.386
     24.6823	  67.000	  66.176	-223.176	  25.335
     24.7157	  53.000	  54.209	-225.209	  25.285
     24.7491	  44.000	  47.476	-227.476	  25.235
     24.7825	  51.000	  43.020	-216.020	  25.184
     24.8160	  31.000	  39.810	-232.810	  25.134
     24.8494	  34.000	  37.401	-227.401	  25.084
     24.8828	  45.000	  35.542	-214.542	  25.034
     24.9162	  36.000	  34.076	-222.076	  24.984
     24.9496	  33.000	  32.897	-223.897	  24.934
     24.9831	  29.000	  31.933	-226.933	  24.884
     25.0165	  19.000	  31.132	-236.132	  24.834
     25.0499	  22.000	  30.458	-232.458	  24.785
     25.0833	  16.000	  29.884	-237.884	  24.735
     25.1168	  29.000	  29.390	-224.390	  24.686
     25.1502	  28.000	  28.960	-224.960	  24.637
     25.1836	  18.000	  28.583	-234.583	  24.587
     25.2170	  30.000	  28.249	-222.249	  24.538
     25.2505	  22.000	  27.952	-229.952	  24.489
     25.2839	  18.000	  27.685	-233.685	  24.440
     25.3173	  30.000	  27.443	-221.443	  24.391
     25.3507	  18.000	  27.223	-233.223	  24.342
     25.3841	  16.000	  27.021	-235.021	  24.293
     25.4176	  31.000	  26.836	-219.836	  24.245
     25.4510	  22.000	  26.665	-228.665	  24.196
     25.4844	  24.000	  26.505	-226.505	  24.148
     25.5178	  21.000	  26.357	-229.357	  24.099
     25.5513	  22.000	  26.217	-228.217	  24.051
     25.5847	  32.000	  26.086	-218.086	  24.003
     25.6181	  24.000	  25.962	-225.962	  23.955
     25.6515	  20.000	  25.844	-229.844	  23.906
     25.6849	  21.000	  25.733	-228.733	  23.858
     25.7184	  14.000	  25.626	-235.626	  23.811
     25.7518	  28.000	  25.524	-221.524	  23.763
     25.7852	  22.000	  25.426	-227.426	  23.715
     25.8186	  16.000	  25.332	-233.332	  23.667
     25.8521	  17.000	  25.242	-232.242	  23.620
     25.8855	  21.000	  25.154	-228.154	  23.572
     25.9189	  18.000	  25.070	-231.070	  23.525
     25.9523	  18.000	  24.988	-230.988	  23.478
     25.9857	  28.000	  24.908	-220.908	  23.430
     26.0192	  17.000	  24.831	-231.831	  23.383
     26.0526	  18.000	  24.755	-230.755	  23.336
     26.0860	  25.000	  24.681	-223.681	  23.289
     26.1194	  19.000	  24.609	-229.609	  23.242
     26.1529	  22.000	  24.539	-226.539	  23.195
     26.1863	  34.000	  24.470	-214.470	  23.149
     26.2197	  18.000	  24.402	-230.402	  23.102
     26.2531	  24.000	  24.336	-224.336	  23.055
     26.2865	  25.000	  24.271	-223.271	  23.009
     26.3200	  28.000	  24.207	-220.207	  22.963
     26.3534	  22.000	  24.144	-226.144	  22.916
     26.3868	  19.000	  24.082	-229.082	  22.870
     26.4202	  18.000	  24.020	-230.020	  22.824
     26.4537	  28.000	  23.960	-219.960	  22.778
     26.4871	  19.000	  23.900	-228.900	  22.732
     26.5205	  20.000	  23.842	-227.842	  22.686
     26.5539	  20.000	  23.784	-227.784	  22.640
     26.5874	  25.000	  23.726	-222.726	  22.594
     26.6208	  20.000	  23.669	-227.669	  22.549
     26.6542	  15.000	  23.613	-232.613	  22.503
     26.6876	  21.000	  23.557	-226.557	  22.458
     26.7210	  17.000	  23.502	-230.502	  22.412
     26.7545	  16.000	  23.447	-231.447	  22.367
     26.7879	  29.000	  23.393	-218.393	  22.322
     26.8213	  18.000	  23.340	-229.340	  22.276
     26.8547	  22.000	  23.286	-225.286	  22.231
     26.8882	  18.000	  23.233	-229.233	  22.186
     26.9216	  24.000	  23.181	-223.181	  22.141
     26.9550	  19.000	  23.129	-228.129	  22.097
     26.9884	  18.000	  23.077	-229.077	  22.052
     27.0218	  16.000	  23.026	-231.026	  22.007
     27.0553	  19.000	  22.975	-227.975	  21.963
     27.0887	  28.000	  22.924	-218.924	  21.918
     27.1221	  18.000	  22.874	-228.874	  21.874
     27.1555	  20.000	  22.824	-226.824	  21.829
     27.1890	  17.000	  22.774	-229.774	  21.785
     27.2224	  14.000	  22.725	-232.725	  21.741
     27.2558	  19.000	  22.675	-227.675	  21.697
     27.2892	  21.000	  22.626	-225.626	  21.653
     27.3226	  21.000	  22.578	-225.578	  21.609
     27.3561	  27.000	  22.529	-219.529	  21.565
     27.3895	  33.000	  22.291	-213.291	  21.521
     27.4229	  16.000	  22.247	-230.247	  21.477
     27.4563	  24.000	  22.204	-222.204	  21.434
     27.4898	  18.000	  22.160	-228.160	  21.390
     27.5232	  19.000	  22.117	-227.117	  21.347
     27.5566	  13.000	  22.073	-233.073	  21.303
     27.5900	  31.000	  22.030	-215.030	  21.260
     27.6234	  20.000	  21.987	-225.987	  21.217
     27.6569	  16.000	  21.944	-229.944	  21.173
     27.6903	  18.000	  21.901	-227.901	  21.130
     27.7237	  28.000	  21.858	-217.858	  21.087
     27.7571	  27.000	  21.815	-218.815	  21.044
     27.7906	  17.000	  21.772	-228.772	  21.002
     27.8240	  30.000	  21.729	-215.729	  20.959
     27.8574	  26.000	  21.686	-219.686	  20.916
     27.8908	  25.000	  21.644	-220.644	  20.874
     27.9243	  13.000	  21.601	-232.601	  20.831
     27.9577	  20.000	  21.559	-225.559	  20.789
     27.9911	  24.000	  21.517	-221.517	  20.746
     28.0245	   9.000	  21.474	-236.474	  20.704
     28.0579	  21.000	  21.432	-224.432	  20.662
     28.0914	  27.000	  21.390	-218.390	  20.620
     28.1248	  21.000	  21.348	-224.348	  20.578
     28.1582	  24.000	  21.306	-221.306	  20.536
     28.1916	  25.000	  21.264	-220.264	  20.494
     28.2251	  21.000	  21.222	-224.222	  20.452
     28.2585	  24.000	  21.180	-221.180	  20.410
     28.2919	  21.000	  21.139	-224.139	  20.369
     28.3253	  20.000	  21.097	-225.097	  20.327
     28.3587	  26.000	  21.056	-219.056	  20.285
     28.3922	  18.000	  21.014	-227.014	  20.244
     28.4256	  20.000	  20.973	-224.973	  20.203
     28.4590	  19.000	  20.932	-225.932	  20.161
     28.4924	  26.000	  20.891	-218.891	  20.120
     28.5259	  22.000	  20.849	-222.849	  20.079
     28.5593	  30.000	  20.808	-214.808	  20.038
     28.5927	  20.000	  20.767	-224.767	  19.997
     28.6261	  19.000	  20.727	-225.727	  19.956
     28.6595	  21.000	  20.686	-223.686	  19.915
     28.6930	  26.000	  20.645	-218.645	  19.875
     28.7264	  21.000	  20.604	-223.604	  19.834
     28.7598	  20.000	  20.564	-224.564	  19.794
     28.7932	  14.000	  20.523	-230.523	  19.753
     28.8267	   5.000	  20.483	-239.483	  19.713
     28.8601	  20.000	  20.442	-224.442	  19.672
     28.8935	  19.000	  20.402	-225.402	  19.632
     28.9269	  17.000	  20.362	-227.362	  19.592
     28.9604	  26.000	  20.322	-218.322	  19.552
     28.9938	  27.000	  20.282	-217.282	  19.512
     29.0272	  19.000	  20.242	-225.242	  19.472
     29.0606	  32.000	  20.202	-212.202	  19.432
     29.0940	  24.000	  20.162	-220.162	  19.392
     29.1275	  22.000	  20.122	-222.122	  19.352
     29.1609	  30.000	  20.083	-214.083	  19.313
     29.1943	  24.000	  20.043	-220.043	  19.273
     29.2277	  32.000	  20.004	-212.004	  19.234
     29.2612	  24.000	  19.964	-219.964	  19.194
     29.2946	  18.000	  19.925	-225.925	  19.155
     29.3280	  27.000	  19.886	-216.886	  19.115
     29.3614	  28.000	  19.846	-215.846	  19.076
     29.3948	  19.000	  19.807	-224.807	  19.037
     29.4283	  31.000	  19.768	-212.768	  18.998
     29.4617	  30.000	  19.729	-213.729	  18.959
     29.4951	  22.000	  19.690	-221.690	  18.920
     29.5285	  29.000	  19.652	-214.652	  18.881
     29.5620	  34.000	  19.613	-209.613	  18.843
     29.5954	  30.000	  19.574	-213.574	  18.804
     29.6288	  24.000	  19.536	-219.536	  18.765
     29.6622	  20.000	  19.497	-223.497	  18.727
     29.6956	  30.000	  19.459	-213.459	  18.688
     29.7291	  20.000	  19.420	-223.420	  18.650
     29.7625	  20.000	  19.382	-223.382	  18.612
     29.7959	  21.000	  19.344	-222.344	  18.573
     29.8293	  31.000	  19.305	-212.305	  18.535
     29.8628	  20.000	  19.267	-223.267	  18.497
     29.8962	  25.000	  19.229	-218.229	  18.459
     29.9296	  31.000	  19.191	-212.191	  18.421
     29.9630	  26.000	  19.154	-217.154	  18.383
     29.9964	  21.000	  19.116	-222.116	  18.346
     30.0299	  24.000	  19.078	-219.078	  18.308
     30.0633	  34.000	  19.040	-209.040	  18.270
     30.0967	  34.000	  19.003	-209.003	  18.233
     30.1301	  28.000	  18.965	-214.965	  18.195
     30.1636	  27.000	  18.928	-215.928	  18.158
     30.1970	  30.000	  18.891	-212.891	  18.120
     30.2304	  21.000	  18.853	-221.853	  18.083
     30.2638	  19.000	  18.816	-223.816	  18.046
     30.2973	  30.000	  18.779	-212.779	  18.009
     30.3307	  42.000	  18.742	-200.742	  17.972
     30.3641	  26.000	  18.705	-216.705	  17.935
     30.3975	  38.000	  18.668	-204.668	  17.898
     30.4309	  38.000	  18.631	-204.631	  17.861
     30.4644	  19.000	  18.594	-223.594	  17.824
     30.4978	  36.000	  18.558	-206.558	  17.787
     30.5312	  33.000	  18.521	-209.521	  17.751
     30.5646	  32.000	  18.485	-210.484	  17.714
     30.5981	  32.000	  18.448	-210.448	  17.678
     30.6315	  20.000	  18.412	-222.412	  17.641
     30.6649	  21.000	  18.375	-221.375	  17.605
     30.6983	  22.000	  18.570	-220.570	  17.569
     30.7317	  20.000	  18.539	-222.539	  17.533
     30.7652	  28.000	  18.623	-214.623	  17.496
     30.7986	  17.000	  18.595	-225.595	  17.460
     30.8320	  21.000	  18.568	-221.568	  17.424
     30.8654	  26.000	  18.541	-216.541	  17.389
     30.8989	  25.000	  18.515	-217.515	  17.353
     30.9323	  30.000	  18.489	-212.489	  17.317
     30.9657	  36.000	  18.464	-206.464	  17.281
     30.9991	  18.000	  18.439	-224.439	  17.246
     31.0325	  15.000	  18.415	-227.415	  17.210
     31.0660	  30.000	  18.391	-212.391	  17.175
     31.0994	  21.000	  18.367	-221.367	  17.139
     31.1328	  17.000	  18.345	-225.345	  17.104
     31.1662	  18.000	  18.322	-224.322	  17.069
     31.1997	  28.000	  18.301	-214.301	  17.033
     31.2331	  20.000	  18.280	-222.280	  16.998
     31.2665	  25.000	  18.260	-217.260	  16.963
     31.2999	  18.000	  18.240	-224.240	  16.928
     31.3334	  30.000	  18.221	-212.221	  16.893
     31.3668	  16.000	  18.203	-226.203	  16.858
     31.4002	  22.000	  18.186	-220.186	  16.824
     31.4336	  31.000	  18.170	-211.170	  16.789
     31.4670	  19.000	  18.155	-223.155	  16.754
     31.5005	  29.000	  18.141	-213.141	  16.720
     31.5339	  25.000	  18.127	-217.127	  16.685
     31.5673	  16.000	  18.115	-226.115	  16.651
     31.6007	  18.000	  18.104	-224.104	  16.617
     31.6342	  21.000	  18.095	-221.095	  16.582
     31.6676	  16.000	  18.087	-226.087	  16.548
     31.7010	  16.000	  18.080	-226.080	  16.514
     31.7344	  10.000	  18.075	-232.075	  16.480
     31.7678	  18.000	  18.071	-224.071	  16.446
     31.8013	  20.000	  18.070	-222.070	  16.412
     31.8347	  25.000	  18.070	-217.070	  16.378
     31.8681	  16.000	  18.072	-226.072	  16.344
     31.9015	  28.000	  18.077	-214.077	  16.310
     31.9350	  14.000	  18.084	-228.084	  16.277
     31.9684	  16.000	  18.093	-226.093	  16.243
     32.0018	  22.000	  18.106	-220.106	  16.210
     32.0352	  16.000	  18.121	-226.121	  16.176
     32.0686	  26.000	  18.140	-216.140	  16.143
     32.1021	  18.000	  18.162	-224.162	  16.110
     32.1355	  19.000	  18.188	-223.188	  16.076
     32.1689	  16.000	  18.219	-226.219	  16.043
     32.2023	  19.000	  18.254	-223.254	  16.010
     32.2358	  26.000	  18.295	-216.295	  15.977
     32.2692	  15.000	  18.341	-227.341	  15.944
     32.3026	  22.000	  18.394	-220.394	  15.911
     32.3360	  18.000	  18.453	-224.453	  15.878
     32.3694	  15.000	  18.521	-227.521	  15.845
     32.4029	  15.000	  18.597	-227.597	  15.813
     32.4363	  20.000	  18.682	-222.682	  15.780
     32.4697	  31.000	  18.779	-211.779	  15.748
     32.5031	  21.000	  18.887	-221.887	  15.715
     32.5366	  21.000	  19.010	-222.010	  15.683
     32.5700	  30.000	  19.147	-213.147	  15.650
     32.6034	  27.000	  19.303	-216.303	  15.618
     32.6368	  20.000	  19.478	-223.478	  15.586
     32.6703	  27.000	  19.676	-216.676	  15.554
     32.7037	  26.000	  19.901	-217.901	  15.521
     32.7371	  28.000	  20.157	-216.157	  15.489
     32.7705	  32.000	  20.449	-212.449	  15.457
     32.8039	  26.000	  20.783	-218.783	  15.425
     32.8374	  26.000	  21.166	-219.166	  15.394
     32.8708	  22.000	  21.609	-223.609	  15.362
     32.9042	  32.000	  22.122	-214.122	  15.330
     32.9376	  20.000	  22.722	-226.722	  15.299
     32.9711	  32.000	  23.425	-215.425	  15.267
     33.0045	  28.000	  24.257	-220.257	  15.235
     33.0379	  27.000	  25.249	-222.249	  15.204
     33.0713	  27.000	  26.444	-223.444	  15.173
     33.1047	  31.000	  27.899	-220.899	  15.141
     33.1382	  22.000	  29.691	-231.691	  15.110
     33.1716	  46.000	  31.931	-209.931	  15.079
     33.2050	  38.000	  34.777	-220.777	  15.048
     33.2384	  43.000	  38.462	-219.462	  15.017
     33.2719	  44.000	  43.571	-223.571	  14.986
     33.3053	  64.000	  50.294	-210.294	  14.955
     33.3387	  79.000	  60.174	-205.174	  14.924
     33.3721	  83.000	  76.852	-217.852	  14.893
