 Cr2O3   Chi2:  2.4350  CELL:    4.95776   4.95776  13.59573   90.0000   90.0000  120.0000   SPGR: R -3 c                 TEMP:      0.00
  1   2394     1.54060     1.54439     0.00000    -0.04945     0.00000    0
    93     0     1
       0.00000      20.00000
 2Theta	Yobs	Ycal	Yobs-Ycal	Backg	Posr	(hkl)	K
     20.0031	  30.000	  36.355	-144.105	  34.782
     20.0365	  45.000	  36.337	-129.087	  34.765
     20.0700	  45.000	  36.319	-129.069	  34.747
     20.1034	  33.000	  36.301	-141.051	  34.729
     20.1368	  38.000	  36.283	-136.033	  34.711
     20.1702	  34.000	  36.265	-140.015	  34.693
     20.2036	  28.000	  36.247	-145.997	  34.675
     20.2371	  32.000	  36.229	-141.979	  34.657
     20.2705	  32.000	  36.211	-141.961	  34.638
     20.3039	  39.000	  36.193	-134.943	  34.620
     20.3373	  52.000	  36.174	-121.924	  34.602
     20.3708	  36.000	  36.156	-137.906	  34.583
     20.4042	  33.000	  36.137	-140.887	  34.565
     20.4376	  32.000	  36.119	-141.869	  34.546
     20.4710	  27.000	  36.100	-146.850	  34.527
     20.5044	  31.000	  36.081	-142.831	  34.509
     20.5379	  19.000	  36.062	-154.812	  34.490
     20.5713	  32.000	  36.044	-141.794	  34.471
     20.6047	  36.000	  36.025	-137.775	  34.452
     20.6381	  41.000	  36.006	-132.756	  34.433
     20.6716	  38.000	  35.987	-135.737	  34.414
     20.7050	  27.000	  35.968	-146.718	  34.395
     20.7384	  46.000	  35.948	-127.698	  34.376
     20.7718	  38.000	  35.929	-135.679	  34.357
     20.8053	  31.000	  35.910	-142.660	  34.337
     20.8387	  34.000	  35.891	-139.641	  34.318
     20.8721	  33.000	  35.871	-140.621	  34.299
     20.9055	  29.000	  35.852	-144.602	  34.279
     20.9389	  28.000	  35.832	-145.582	  34.260
     20.9724	  38.000	  35.813	-135.563	  34.240
     21.0058	  37.000	  35.793	-136.543	  34.220
     21.0392	  28.000	  35.773	-145.523	  34.201
     21.0726	  32.000	  35.753	-141.503	  34.181
     21.1061	  39.000	  35.734	-134.484	  34.161
     21.1395	  34.000	  35.714	-139.464	  34.141
     21.1729	  41.000	  35.694	-132.444	  34.121
     21.2063	  44.000	  35.674	-129.424	  34.101
     21.2397	  20.000	  35.654	-153.404	  34.081
     21.2732	  45.000	  35.633	-128.383	  34.061
     21.3066	  38.000	  35.613	-135.363	  34.041
     21.3400	  30.000	  35.593	-143.343	  34.020
     21.3734	  26.000	  35.573	-147.323	  34.000
     21.4069	  37.000	  35.694	-136.444	  33.980
     21.4403	  33.000	  35.676	-140.426	  33.959
     21.4737	  30.000	  35.730	-143.480	  33.939
     21.5071	  33.000	  35.714	-140.464	  33.918
     21.5405	  24.000	  35.699	-149.449	  33.898
     21.5740	  37.000	  35.683	-136.433	  33.877
     21.6074	  31.000	  35.668	-142.418	  33.856
     21.6408	  22.000	  35.653	-151.403	  33.835
     21.6742	  37.000	  35.638	-136.388	  33.815
     21.7077	  27.000	  35.623	-146.373	  33.794
     21.7411	  37.000	  35.609	-136.359	  33.773
     21.7745	  33.000	  35.594	-140.344	  33.752
     21.8079	  36.000	  35.580	-137.330	  33.731
     21.8414	  27.000	  35.566	-146.316	  33.710
     21.8748	  46.000	  35.552	-127.302	  33.688
     21.9082	  27.000	  35.539	-146.289	  33.667
     21.9416	  22.000	  35.525	-151.275	  33.646
     21.9750	  28.000	  35.512	-145.262	  33.625
     22.0085	  24.000	  35.499	-149.249	  33.603
     22.0419	  29.000	  35.487	-144.237	  33.582
     22.0753	  40.000	  35.475	-133.225	  33.560
     22.1087	  26.000	  35.463	-147.213	  33.539
     22.1422	  39.000	  35.451	-134.201	  33.517
     22.1756	  39.000	  35.440	-134.190	  33.496
     22.2090	  24.000	  35.430	-149.180	  33.474
     22.2424	  40.000	  35.420	-133.170	  33.452
     22.2758	  33.000	  35.410	-140.160	  33.430
     22.3093	  32.000	  35.401	-141.151	  33.409
     22.3427	  30.000	  35.392	-143.142	  33.387
     22.3761	  33.000	  35.384	-140.134	  33.365
     22.4095	  31.000	  35.377	-142.127	  33.343
     22.4430	  34.000	  35.370	-139.120	  33.321
     22.4764	  40.000	  35.364	-133.114	  33.299
     22.5098	  28.000	  35.358	-145.108	  33.276
     22.5432	  49.000	  35.354	-124.104	  33.254
     22.5766	  27.000	  35.351	-146.101	  33.232
     22.6101	  34.000	  35.348	-139.098	  33.210
     22.6435	  49.000	  35.346	-124.096	  33.187
     22.6769	  36.000	  35.346	-137.096	  33.165
     22.7103	  30.000	  35.347	-143.097	  33.143
     22.7438	  24.000	  35.349	-149.099	  33.120
     22.7772	  30.000	  35.352	-143.102	  33.098
     22.8106	  43.000	  35.358	-130.108	  33.075
     22.8440	  42.000	  35.364	-131.114	  33.052
     22.8774	  37.000	  35.373	-136.123	  33.030
     22.9109	  28.000	  35.383	-145.133	  33.007
     22.9443	  39.000	  35.396	-134.146	  32.984
     22.9777	  28.000	  35.411	-145.161	  32.961
     23.0111	  34.000	  35.429	-139.179	  32.939
     23.0446	  37.000	  35.449	-136.199	  32.916
     23.0780	  41.000	  35.472	-132.222	  32.893
     23.1114	  31.000	  35.499	-142.249	  32.870
     23.1448	  39.000	  35.530	-134.280	  32.847
     23.1783	  31.000	  35.565	-142.315	  32.824
     23.2117	  37.000	  35.604	-136.354	  32.801
     23.2451	  26.000	  35.649	-147.399	  32.777
     23.2785	  32.000	  35.699	-141.449	  32.754
     23.3119	  39.000	  35.755	-134.505	  32.731
     23.3454	  28.000	  35.819	-145.569	  32.708
     23.3788	  40.000	  35.890	-133.640	  32.684
     23.4122	  33.000	  35.971	-140.721	  32.661
     23.4456	  32.000	  36.062	-141.812	  32.638
     23.4791	  34.000	  36.164	-139.914	  32.614
     23.5125	  36.000	  36.280	-138.030	  32.591
     23.5459	  43.000	  36.410	-131.160	  32.567
     23.5793	  36.000	  36.558	-138.308	  32.544
     23.6127	  27.000	  36.727	-147.477	  32.520
     23.6462	  41.000	  36.918	-133.668	  32.496
     23.6796	  36.000	  37.137	-138.887	  32.473
     23.7130	  27.000	  37.389	-148.139	  32.449
     23.7464	  42.000	  37.678	-133.428	  32.425
     23.7799	  38.000	  38.014	-137.764	  32.401
     23.8133	  48.000	  38.404	-128.154	  32.377
     23.8467	  38.000	  38.861	-138.611	  32.353
     23.8801	  37.000	  39.399	-140.149	  32.329
     23.9135	  40.000	  40.039	-137.789	  32.305
     23.9470	  42.000	  40.806	-136.556	  32.281
     23.9804	  33.000	  41.734	-146.484	  32.257
     24.0138	  55.000	  42.871	-125.621	  32.233
     24.0472	  48.000	  44.280	-134.030	  32.209
     24.0807	  53.000	  46.052	-130.802	  32.185
     24.1141	  53.000	  48.322	-133.072	  32.161
     24.1475	  69.000	  51.295	-120.045	  32.137
     24.1809	  69.000	  55.323	-124.073	  32.112
     24.2144	  61.000	  61.119	-137.869	  32.088
     24.2478	  98.000	  70.261	-110.011	  32.064
     24.2812	  87.000	  86.120	-136.870	  32.039
     24.3146	 137.000	 114.691	-115.441	  32.015
     24.3480	 134.000	 163.878	-167.628	  31.990
     24.3815	 237.000	 239.226	-139.976	  31.966
     24.4149	 347.000	 333.696	-124.446	  31.941
     24.4483	 443.000	 410.568	-105.318	  31.917
     24.4817	 433.000	 422.111	-126.861	  31.892
     24.5152	 407.000	 370.925	-101.675	  31.867
     24.5486	 285.000	 286.135	-138.885	  31.843
     24.5820	 187.000	 202.202	-152.952	  31.818
     24.6154	 155.000	 140.168	-122.918	  31.793
     24.6488	 104.000	 101.137	-134.887	  31.768
     24.6823	  77.000	  78.580	-139.330	  31.744
     24.7157	  57.000	  65.759	-146.509	  31.719
     24.7491	  64.000	  58.071	-131.821	  31.694
     24.7825	  48.000	  53.021	-142.771	  31.669
     24.8160	  45.000	  49.425	-142.175	  31.644
     24.8494	  43.000	  46.726	-141.476	  31.619
     24.8828	  55.000	  44.637	-127.387	  31.594
     24.9162	  41.000	  42.983	-139.733	  31.569
     24.9496	  45.000	  41.650	-134.400	  31.544
     24.9831	  39.000	  40.561	-139.311	  31.519
     25.0165	  30.000	  39.657	-147.407	  31.494
     25.0499	  41.000	  38.900	-135.650	  31.469
     25.0833	  25.000	  38.257	-151.007	  31.443
     25.1168	  37.000	  37.707	-138.457	  31.418
     25.1502	  40.000	  37.231	-134.981	  31.393
     25.1836	  39.000	  36.817	-135.567	  31.368
     25.2170	  40.000	  36.453	-134.203	  31.342
     25.2505	  38.000	  36.132	-135.882	  31.317
     25.2839	  48.000	  35.847	-125.597	  31.292
     25.3173	  39.000	  35.591	-134.341	  31.266
     25.3507	  34.000	  35.361	-139.111	  31.241
     25.3841	  44.000	  35.153	-128.903	  31.215
     25.4176	  45.000	  34.963	-127.713	  31.190
     25.4510	  39.000	  34.790	-133.540	  31.164
     25.4844	  38.000	  34.632	-134.382	  31.139
     25.5178	  36.000	  34.486	-136.236	  31.113
     25.5513	  26.000	  34.351	-146.101	  31.087
     25.5847	  40.000	  34.225	-131.975	  31.062
     25.6181	  26.000	  34.108	-145.858	  31.036
     25.6515	  34.000	  33.999	-137.749	  31.010
     25.6849	  44.000	  33.896	-127.646	  30.985
     25.7184	  48.000	  33.800	-123.550	  30.959
     25.7518	  34.000	  33.709	-137.459	  30.933
     25.7852	  33.000	  33.622	-138.372	  30.907
     25.8186	  36.000	  33.541	-135.291	  30.882
     25.8521	  33.000	  33.463	-138.213	  30.856
     25.8855	  43.000	  33.389	-128.139	  30.830
     25.9189	  36.000	  33.318	-135.068	  30.804
     25.9523	  42.000	  33.250	-129.000	  30.778
     25.9857	  32.000	  33.185	-138.935	  30.752
     26.0192	  37.000	  33.122	-133.872	  30.726
     26.0526	  29.000	  33.062	-141.812	  30.700
     26.0860	  25.000	  33.003	-145.753	  30.674
     26.1194	  44.000	  32.947	-126.697	  30.648
     26.1529	  27.000	  32.892	-143.642	  30.622
     26.1863	  29.000	  32.839	-141.589	  30.596
     26.2197	  38.000	  32.788	-132.538	  30.570
     26.2531	  32.000	  32.737	-138.487	  30.544
     26.2865	  36.000	  32.689	-134.439	  30.517
     26.3200	  29.000	  32.641	-141.391	  30.491
     26.3534	  29.000	  32.594	-141.344	  30.465
     26.3868	  26.000	  32.549	-144.299	  30.439
     26.4202	  34.000	  32.504	-136.254	  30.413
     26.4537	  28.000	  32.461	-142.211	  30.386
     26.4871	  33.000	  32.418	-137.168	  30.360
     26.5205	  34.000	  32.376	-136.126	  30.334
     26.5539	  34.000	  32.335	-136.085	  30.307
     26.5874	  28.000	  32.294	-142.044	  30.281
     26.6208	  34.000	  32.254	-136.004	  30.254
     26.6542	  30.000	  32.215	-139.965	  30.228
     26.6876	  25.000	  32.176	-144.926	  30.202
     26.7210	  33.000	  32.137	-136.887	  30.175
     26.7545	  41.000	  32.100	-128.850	  30.149
     26.7879	  31.000	  32.062	-138.812	  30.122
     26.8213	  32.000	  32.025	-137.775	  30.096
     26.8547	  31.000	  31.989	-138.739	  30.069
     26.8882	  32.000	  31.953	-137.703	  30.043
     26.9216	  36.000	  31.917	-133.667	  30.016
     26.9550	  31.000	  31.882	-138.632	  29.989
     26.9884	  19.000	  31.847	-150.597	  29.963
     27.0218	  26.000	  31.812	-143.562	  29.936
     27.0553	  29.000	  31.777	-140.527	  29.909
     27.0887	  30.000	  31.743	-139.493	  29.883
     27.1221	  27.000	  31.709	-142.459	  29.856
     27.1555	  29.000	  31.676	-140.426	  29.829
     27.1890	  36.000	  31.642	-133.392	  29.803
     27.2224	  32.000	  31.609	-137.359	  29.776
     27.2558	  36.000	  31.576	-133.326	  29.749
     27.2892	  29.000	  31.543	-140.293	  29.722
     27.3226	  28.000	  31.511	-141.261	  29.696
     27.3561	  38.000	  31.478	-131.228	  29.669
     27.3895	  28.000	  31.446	-141.196	  29.642
     27.4229	  33.000	  31.414	-136.164	  29.615
     27.4563	  32.000	  31.382	-137.132	  29.588
     27.4898	  30.000	  31.350	-139.100	  29.561
     27.5232	  32.000	  31.319	-137.069	  29.534
     27.5566	  29.000	  31.151	-139.901	  29.508
     27.5900	  30.000	  31.053	-138.803	  29.481
     27.6234	  27.000	  31.026	-141.776	  29.454
     27.6569	  33.000	  30.999	-135.749	  29.427
     27.6903	  20.000	  30.972	-148.722	  29.400
     27.7237	  32.000	  30.945	-136.695	  29.373
     27.7571	  40.000	  30.918	-128.668	  29.346
     27.7906	  38.000	  30.891	-130.641	  29.319
     27.8240	  39.000	  30.864	-129.614	  29.292
     27.8574	  37.000	  30.837	-131.587	  29.265
     27.8908	  40.000	  30.810	-128.560	  29.237
     27.9243	  40.000	  30.783	-128.533	  29.210
     27.9577	  29.000	  30.756	-139.506	  29.183
     27.9911	  33.000	  30.729	-135.479	  29.156
     28.0245	  36.000	  30.702	-132.452	  29.129
     28.0579	  30.000	  30.675	-138.424	  29.102
     28.0914	  38.000	  30.647	-130.397	  29.075
     28.1248	  33.000	  30.620	-135.370	  29.048
     28.1582	  32.000	  30.593	-136.343	  29.020
     28.1916	  34.000	  30.566	-134.316	  28.993
     28.2251	  28.000	  30.539	-140.289	  28.966
     28.2585	  26.000	  30.511	-142.261	  28.939
     28.2919	  36.000	  30.484	-132.234	  28.912
     28.3253	  40.000	  30.457	-128.207	  28.884
     28.3587	  36.000	  30.430	-132.180	  28.857
     28.3922	  49.000	  30.402	-119.152	  28.830
     28.4256	  55.000	  30.375	-113.125	  28.803
     28.4590	  34.000	  30.348	-134.098	  28.775
     28.4924	  24.000	  30.321	-144.071	  28.748
     28.5259	  48.000	  30.293	-120.043	  28.721
     28.5593	  45.000	  30.266	-123.016	  28.693
     28.5927	  32.000	  30.239	-135.989	  28.666
     28.6261	  31.000	  30.211	-136.961	  28.639
     28.6595	  44.000	  30.184	-123.934	  28.611
     28.6930	  44.000	  30.157	-123.907	  28.584
     28.7264	  28.000	  30.129	-139.879	  28.557
     28.7598	  43.000	  30.102	-124.852	  28.529
     28.7932	  44.000	  30.074	-123.824	  28.502
     28.8267	  32.000	  30.047	-135.797	  28.474
     28.8601	  39.000	  30.020	-128.770	  28.447
     28.8935	  37.000	  29.992	-130.742	  28.420
     28.9269	  39.000	  29.965	-128.715	  28.392
     28.9604	  45.000	  29.937	-122.687	  28.365
     28.9938	  42.000	  29.910	-125.660	  28.337
     29.0272	  55.000	  29.882	-112.632	  28.310
     29.0606	  43.000	  29.855	-124.605	  28.282
     29.0940	  38.000	  29.827	-129.577	  28.255
     29.1275	  33.000	  29.800	-134.550	  28.227
     29.1609	  57.000	  29.773	-110.523	  28.200
     29.1943	  41.000	  29.745	-126.495	  28.172
     29.2277	  52.000	  29.718	-115.468	  28.145
     29.2612	  52.000	  29.690	-115.440	  28.117
     29.2946	  42.000	  29.663	-125.413	  28.090
     29.3280	  40.000	  29.635	-127.385	  28.062
     29.3614	  39.000	  29.607	-128.357	  28.035
     29.3948	  46.000	  29.580	-121.330	  28.007
     29.4283	  48.000	  29.552	-119.302	  27.980
     29.4617	  50.000	  29.525	-117.275	  27.952
     29.4951	  36.000	  29.497	-131.247	  27.925
     29.5285	  39.000	  29.470	-128.220	  27.897
     29.5620	  45.000	  29.442	-122.192	  27.870
     29.5954	  42.000	  29.415	-125.165	  27.842
     29.6288	  62.000	  29.387	-105.137	  27.814
     29.6622	  50.000	  29.359	-117.109	  27.787
     29.6956	  66.000	  29.332	-101.082	  27.759
     29.7291	  53.000	  29.304	-114.054	  27.732
     29.7625	  56.000	  29.277	-111.027	  27.704
     29.7959	  52.000	  29.249	-114.999	  27.676
     29.8293	  52.000	  29.221	-114.971	  27.649
     29.8628	  52.000	  29.194	-114.944	  27.621
     29.8962	  70.000	  29.166	 -96.916	  27.594
     29.9296	  49.000	  29.139	-117.889	  27.566
     29.9630	  66.000	  29.111	-100.861	  27.538
     29.9964	  69.000	  29.083	 -97.833	  27.511
     30.0299	  64.000	  29.056	-102.806	  27.483
     30.0633	  68.000	  29.028	 -98.778	  27.455
     30.0967	  69.000	  29.000	 -97.750	  27.428
     30.1301	  67.000	  28.973	 -99.723	  27.400
     30.1636	  66.000	  28.945	-100.695	  27.372
     30.1970	  70.000	  28.917	 -96.667	  27.345
     30.2304	  69.000	  28.890	 -97.640	  27.317
     30.2638	  78.000	  28.862	 -88.612	  27.290
     30.2973	  83.000	  28.834	 -83.584	  27.262
     30.3307	  67.000	  28.807	 -99.557	  27.234
     30.3641	  83.000	  28.779	 -83.529	  27.207
     30.3975	  74.000	  28.751	 -92.501	  27.179
     30.4309	  64.000	  28.724	-102.474	  27.151
     30.4644	  69.000	  28.963	 -97.713	  27.124
     30.4978	  76.000	  28.941	 -90.691	  27.096
     30.5312	  74.000	  28.919	 -92.669	  27.068
     30.5646	  62.000	  29.032	-104.782	  27.040
     30.5981	  62.000	  29.014	-104.764	  27.013
     30.6315	  73.000	  28.996	 -93.746	  26.985
     30.6649	  64.000	  28.978	-102.728	  26.957
     30.6983	  68.000	  28.961	 -98.711	  26.930
     30.7317	  50.000	  28.944	-116.694	  26.902
     30.7652	  76.000	  28.928	 -90.678	  26.874
     30.7986	  61.000	  28.912	-105.662	  26.847
     30.8320	  66.000	  28.896	-100.646	  26.819
     30.8654	  60.000	  28.881	-106.631	  26.791
     30.8989	  68.000	  28.866	 -98.616	  26.764
     30.9323	  51.000	  28.852	-115.602	  26.736
     30.9657	  41.000	  28.838	-125.588	  26.708
     30.9991	  46.000	  28.825	-120.575	  26.681
     31.0325	  73.000	  28.812	 -93.562	  26.653
     31.0660	  48.000	  28.800	-118.550	  26.625
     31.0994	  50.000	  28.789	-116.539	  26.598
     31.1328	  38.000	  28.778	-128.528	  26.570
     31.1662	  48.000	  28.768	-118.518	  26.542
     31.1997	  46.000	  28.759	-120.509	  26.515
     31.2331	  57.000	  28.751	-109.501	  26.487
     31.2665	  55.000	  28.743	-111.493	  26.459
     31.2999	  46.000	  28.736	-120.486	  26.431
     31.3334	  55.000	  28.731	-111.481	  26.404
     31.3668	  45.000	  28.726	-121.476	  26.376
     31.4002	  43.000	  28.722	-123.472	  26.348
     31.4336	  62.000	  28.719	-104.469	  26.321
     31.4670	  45.000	  28.718	-121.468	  26.293
     31.5005	  33.000	  28.718	-133.468	  26.265
     31.5339	  39.000	  28.719	-127.469	  26.238
     31.5673	  37.000	  28.722	-129.472	  26.210
     31.6007	  45.000	  28.726	-121.476	  26.182
     31.6342	  45.000	  28.732	-121.482	  26.155
     31.6676	  44.000	  28.740	-122.490	  26.127
     31.7010	  51.000	  28.749	-115.499	  26.100
     31.7344	  57.000	  28.761	-109.511	  26.072
     31.7678	  37.000	  28.775	-129.525	  26.044
     31.8013	  29.000	  28.791	-137.541	  26.017
     31.8347	  51.000	  28.809	-115.559	  25.989
     31.8681	  44.000	  28.831	-122.581	  25.961
     31.9015	  54.000	  28.855	-112.605	  25.934
     31.9350	  36.000	  28.883	-130.633	  25.906
     31.9684	  48.000	  28.914	-118.664	  25.878
     32.0018	  52.000	  28.949	-114.699	  25.851
     32.0352	  37.000	  28.987	-129.737	  25.823
     32.0686	  46.000	  29.031	-120.781	  25.796
     32.1021	  41.000	  29.079	-125.829	  25.768
     32.1355	  46.000	  29.132	-120.882	  25.740
     32.1689	  32.000	  29.191	-134.941	  25.713
     32.2023	  29.000	  29.257	-138.007	  25.685
     32.2358	  37.000	  29.329	-130.079	  25.658
     32.2692	  44.000	  29.410	-123.160	  25.630
     32.3026	  49.000	  29.499	-118.249	  25.603
     32.3360	  50.000	  29.597	-117.347	  25.575
     32.3694	  36.000	  29.705	-131.455	  25.547
     32.4029	  27.000	  29.826	-140.576	  25.520
     32.4363	  38.000	  29.959	-129.709	  25.492
     32.4697	  26.000	  30.108	-141.858	  25.465
     32.5031	  34.000	  30.272	-134.022	  25.437
     32.5366	  36.000	  30.455	-132.205	  25.410
     32.5700	  38.000	  30.660	-130.410	  25.382
     32.6034	  29.000	  30.888	-139.638	  25.355
     32.6368	  39.000	  31.143	-129.893	  25.327
     32.6703	  37.000	  31.430	-132.180	  25.300
     32.7037	  45.000	  31.753	-124.503	  25.272
     32.7371	  37.000	  32.119	-132.869	  25.245
     32.7705	  39.000	  32.533	-131.283	  25.217
     32.8039	  57.000	  33.004	-113.754	  25.190
     32.8374	  45.000	  33.543	-126.293	  25.162
     32.8708	  54.000	  34.163	-117.913	  25.135
     32.9042	  60.000	  34.879	-112.629	  25.107
     32.9376	  48.000	  35.711	-125.461	  25.080
     32.9711	  43.000	  36.685	-131.435	  25.052
     33.0045	  50.000	  37.834	-125.584	  25.025
     33.0379	  49.000	  39.200	-127.950	  24.998
     33.0713	  60.000	  41.099	-118.850	  24.970
     33.1047	  65.000	  43.094	-115.844	  24.943
     33.1382	  57.000	  45.669	-126.419	  24.915
     33.1716	  69.000	  48.719	-117.469	  24.888
     33.2050	  73.000	  52.582	-117.332	  24.861
     33.2384	  97.000	  57.598	 -98.348	  24.833
     33.2719	  77.000	  64.364	-125.114	  24.806
     33.3053	  79.000	  74.003	-132.753	  24.779
     33.3387	 114.000	  88.632	-112.382	  24.751
     33.3721	  88.000	 111.892	-161.642	  24.724
