ZrO2 monoclinic   Chi2:  3.1432  CELL:    5.14707   5.20256   5.31998   90.0000   99.1857   90.0000   SPGR: P 1 21/c 1             TEMP:      0.00
  1   2094     1.54060     1.54439     0.00000     0.09425     0.00000    0
   252     0     1
       0.00000      15.00000
 2Theta	Yobs	Ycal	Yobs-Ycal	Backg	Posr	(hkl)	K
     10.0299	  413.00	  313.30	-2075.75	  243.11
     10.0633	  409.00	  313.25	-2075.75	  243.07
     10.0968	  454.00	  313.21	-2075.75	  243.03
     10.1302	  479.00	  313.16	-2075.75	  242.98
     10.1636	  460.00	  313.12	-2075.75	  242.94
     10.1970	  432.00	  313.07	-2075.75	  242.89
     10.2304	  470.00	  313.03	-2075.75	  242.85
     10.2639	  422.00	  312.99	-2075.75	  242.80
     10.2973	  416.00	  312.94	-2075.75	  242.76
     10.3307	  398.00	  312.90	-2075.75	  242.72
     10.3641	  439.00	  312.86	-2075.75	  242.67
     10.3976	  445.00	  312.81	-2075.75	  242.63
     10.4310	  442.00	  312.77	-2075.75	  242.59
     10.4644	  439.00	  312.72	-2075.75	  242.54
     10.4978	  428.00	  312.68	-2075.75	  242.50
     10.5312	  428.00	  312.64	-2075.75	  242.45
     10.5647	  434.00	  312.59	-2075.75	  242.41
     10.5981	  445.00	  312.55	-2075.75	  242.37
     10.6315	  427.00	  312.51	-2075.75	  242.32
     10.6649	  413.00	  312.46	-2075.75	  242.28
     10.6984	  395.00	  312.42	-2075.75	  242.24
     10.7318	  429.00	  312.38	-2075.75	  242.20
     10.7652	  412.00	  312.33	-2075.75	  242.15
     10.7986	  397.00	  312.29	-2075.75	  242.11
     10.8321	  461.00	  312.25	-2075.75	  242.07
     10.8655	  419.00	  312.21	-2075.75	  242.02
     10.8989	  391.00	  312.16	-2075.75	  241.98
     10.9323	  422.00	  312.12	-2075.75	  241.94
     10.9657	  392.00	  312.08	-2075.75	  241.90
     10.9992	  381.00	  312.04	-2075.75	  241.85
     11.0326	  397.00	  311.99	-2075.75	  241.81
     11.0660	  411.00	  311.95	-2075.75	  241.77
     11.0994	  385.00	  311.91	-2075.75	  241.73
     11.1329	  419.00	  311.87	-2075.75	  241.68
     11.1663	  390.00	  311.82	-2075.75	  241.64
     11.1997	  434.00	  311.78	-2075.75	  241.60
     11.2331	  436.00	  311.74	-2075.75	  241.56
     11.2665	  392.00	  311.70	-2075.75	  241.52
     11.3000	  418.00	  311.66	-2075.75	  241.47
     11.3334	  424.00	  311.61	-2075.75	  241.43
     11.3668	  400.00	  311.57	-2075.75	  241.39
     11.4002	  436.00	  311.53	-2075.75	  241.35
     11.4337	  402.00	  311.49	-2075.75	  241.31
     11.4671	  396.00	  311.45	-2075.75	  241.26
     11.5005	  379.00	  311.41	-2075.75	  241.22
     11.5339	  420.00	  311.36	-2075.75	  241.18
     11.5673	  410.00	  311.32	-2075.75	  241.14
     11.6008	  402.00	  311.28	-2075.75	  241.10
     11.6342	  406.00	  311.24	-2075.75	  241.06
     11.6676	  411.00	  311.20	-2075.75	  241.02
     11.7010	  402.00	  311.16	-2075.75	  240.97
     11.7345	  378.00	  311.12	-2075.75	  240.93
     11.7679	  412.00	  311.07	-2075.75	  240.89
     11.8013	  388.00	  311.03	-2075.75	  240.85
     11.8347	  382.00	  310.99	-2075.75	  240.81
     11.8682	  384.00	  310.95	-2075.75	  240.77
     11.9016	  378.00	  310.91	-2075.75	  240.73
     11.9350	  394.00	  310.87	-2075.75	  240.69
     11.9684	  383.00	  310.83	-2075.75	  240.65
     12.0018	  366.00	  310.79	-2075.75	  240.61
     12.0353	  409.00	  310.75	-2075.75	  240.57
     12.0687	  399.00	  310.71	-2075.75	  240.53
     12.1021	  351.00	  310.67	-2075.75	  240.49
     12.1355	  385.00	  310.63	-2075.75	  240.44
     12.1690	  395.00	  310.59	-2075.75	  240.40
     12.2024	  390.00	  310.55	-2075.75	  240.36
     12.2358	  424.00	  310.51	-2075.75	  240.32
     12.2692	  416.00	  310.47	-2075.75	  240.28
     12.3026	  400.00	  310.43	-2075.75	  240.24
     12.3361	  397.00	  310.39	-2075.75	  240.20
     12.3695	  418.00	  310.35	-2075.75	  240.16
     12.4029	  388.00	  310.31	-2075.75	  240.12
     12.4363	  360.00	  310.27	-2075.75	  240.08
     12.4698	  350.00	  310.23	-2075.75	  240.04
     12.5032	  332.00	  310.19	-2075.75	  240.00
     12.5366	  349.00	  310.15	-2075.75	  239.97
     12.5700	  354.00	  310.11	-2075.75	  239.93
     12.6034	  362.00	  310.07	-2075.75	  239.89
     12.6369	  410.00	  310.03	-2075.75	  239.85
     12.6703	  371.00	  309.99	-2075.75	  239.81
     12.7037	  397.00	  309.95	-2075.75	  239.77
     12.7371	  353.00	  309.91	-2075.75	  239.73
     12.7706	  363.00	  309.87	-2075.75	  239.69
     12.8040	  388.00	  309.83	-2075.75	  239.65
     12.8374	  326.00	  309.79	-2075.75	  239.61
     12.8708	  384.00	  309.75	-2075.75	  239.57
     12.9042	  364.00	  309.72	-2075.75	  239.53
     12.9377	  409.00	  309.68	-2075.75	  239.49
     12.9711	  386.00	  309.64	-2075.75	  239.46
     13.0045	  361.00	  309.60	-2075.75	  239.42
     13.0379	  384.00	  309.56	-2075.75	  239.38
     13.0714	  413.00	  309.52	-2075.75	  239.34
     13.1048	  409.00	  309.48	-2075.75	  239.30
     13.1382	  367.00	  309.45	-2075.75	  239.26
     13.1716	  426.00	  309.41	-2075.75	  239.22
     13.2051	  383.00	  309.37	-2075.75	  239.19
     13.2385	  374.00	  309.33	-2075.75	  239.15
     13.2719	  380.00	  309.29	-2075.75	  239.11
     13.3053	  366.00	  309.25	-2075.75	  239.07
     13.3387	  399.00	  309.22	-2075.75	  239.03
     13.3722	  332.00	  309.18	-2075.75	  239.00
     13.4056	  351.00	  309.14	-2075.75	  238.96
     13.4390	  375.00	  309.10	-2075.75	  238.92
     13.4724	  377.00	  309.06	-2075.75	  238.88
     13.5059	  393.00	  309.03	-2075.75	  238.84
     13.5393	  359.00	  308.99	-2075.75	  238.81
     13.5727	  410.00	  308.95	-2075.75	  238.77
     13.6061	  374.00	  308.91	-2075.75	  238.73
     13.6395	  380.00	  308.87	-2075.75	  238.69
     13.6730	  371.00	  308.84	-2075.75	  238.66
     13.7064	  350.00	  308.80	-2075.75	  238.62
     13.7398	  389.00	  308.76	-2075.75	  238.58
     13.7732	  374.00	  308.73	-2075.75	  238.54
     13.8067	  354.00	  308.69	-2075.75	  238.51
     13.8401	  369.00	  308.65	-2075.75	  238.47
     13.8735	  368.00	  308.61	-2075.75	  238.43
     13.9069	  384.00	  308.58	-2075.75	  238.39
     13.9403	  341.00	  308.54	-2075.75	  238.36
     13.9738	  366.00	  308.50	-2075.75	  238.32
     14.0072	  381.00	  308.47	-2075.75	  238.28
     14.0406	  394.00	  308.43	-2075.75	  238.25
     14.0740	  403.00	  308.39	-2075.75	  238.21
     14.1075	  381.00	  308.36	-2075.75	  238.17
     14.1409	  348.00	  308.32	-2075.75	  238.14
     14.1743	  364.00	  308.28	-2075.75	  238.10
     14.2077	  331.00	  308.25	-2075.75	  238.06
     14.2412	  371.00	  308.21	-2075.75	  238.03
     14.2746	  385.00	  308.17	-2075.75	  237.99
     14.3080	  398.00	  308.14	-2075.75	  237.95
     14.3414	  361.00	  308.10	-2075.75	  237.92
     14.3748	  354.00	  308.06	-2075.75	  237.88
     14.4083	  362.00	  308.03	-2075.75	  237.84
     14.4417	  377.00	  307.99	-2075.75	  237.81
     14.4751	  364.00	  307.95	-2075.75	  237.77
     14.5085	  341.00	  307.92	-2075.75	  237.74
     14.5420	  359.00	  307.88	-2075.75	  237.70
     14.5754	  351.00	  307.85	-2075.75	  237.66
     14.6088	  350.00	  307.81	-2075.75	  237.63
     14.6422	  338.00	  307.78	-2075.75	  237.59
     14.6756	  339.00	  307.74	-2075.75	  237.56
     14.7091	  337.00	  307.70	-2075.75	  237.52
     14.7425	  342.00	  307.67	-2075.75	  237.49
     14.7759	  341.00	  307.63	-2075.75	  237.45
     14.8093	  390.00	  307.60	-2075.75	  237.41
     14.8428	  331.00	  307.56	-2075.75	  237.38
     14.8762	  335.00	  307.53	-2075.75	  237.34
     14.9096	  360.00	  307.49	-2075.75	  237.31
     14.9430	  335.00	  307.46	-2075.75	  237.27
     14.9764	  319.00	  307.42	-2075.75	  237.24
     15.0099	  355.00	  307.39	-2028.14	  237.20
     15.0433	  340.00	  307.81	-2043.56	  237.17
     15.0767	  348.00	  307.79	-2035.54	  237.13
     15.1101	  357.00	  307.76	-2026.51	  237.10
     15.1436	  357.00	  307.74	-2026.49	  237.06
     15.1770	  310.00	  307.72	-2073.47	  237.03
     15.2104	  339.00	  307.70	-2044.45	  236.99
     15.2438	  322.00	  307.68	-2061.43	  236.96
     15.2772	  341.00	  307.66	-2042.41	  236.92
     15.3107	  336.00	  307.65	-2047.40	  236.89
     15.3441	  339.00	  307.63	-2044.38	  236.85
     15.3775	  360.00	  307.61	-2023.36	  236.82
     15.4109	  314.00	  307.60	-2069.35	  236.79
     15.4444	  339.00	  307.58	-2044.33	  236.75
     15.4778	  349.00	  307.57	-2034.32	  236.72
     15.5112	  349.00	  307.56	-2034.31	  236.68
     15.5446	  311.00	  307.55	-2072.30	  236.65
     15.5781	  348.00	  307.54	-2035.29	  236.61
     15.6115	  310.00	  307.53	-2073.28	  236.58
     15.6449	  362.00	  307.52	-2021.27	  236.55
     15.6783	  363.00	  307.52	-2020.27	  236.51
     15.7117	  376.00	  307.51	-2007.26	  236.48
     15.7452	  398.00	  307.51	-1985.26	  236.44
     15.7786	  357.00	  307.51	-2026.26	  236.41
     15.8120	  343.00	  307.51	-2040.26	  236.38
     15.8454	  325.00	  307.52	-2058.27	  236.34
     15.8789	  321.00	  307.52	-2062.27	  236.31
     15.9123	  381.00	  307.53	-2002.28	  236.28
     15.9457	  293.00	  307.55	-2090.30	  236.24
     15.9791	  284.00	  307.56	-2099.31	  236.21
     16.0125	  325.00	  307.58	-2058.33	  236.18
     16.0460	  317.00	  307.60	-2066.35	  236.14
     16.0794	  373.00	  307.62	-2010.37	  236.11
     16.1128	  300.00	  307.65	-2083.40	  236.08
     16.1462	  330.00	  307.69	-2053.44	  236.04
     16.1797	  334.00	  307.73	-2049.48	  236.01
     16.2131	  311.00	  307.77	-2072.52	  235.98
     16.2465	  356.00	  307.82	-2027.57	  235.94
     16.2799	  354.00	  307.88	-2029.63	  235.91
     16.3133	  356.00	  307.94	-2027.69	  235.88
     16.3468	  326.00	  308.02	-2057.77	  235.84
     16.3802	  287.00	  308.10	-2096.85	  235.81
     16.4136	  342.00	  308.19	-2041.94	  235.78
     16.4470	  334.00	  308.30	-2050.05	  235.75
     16.4805	  332.00	  308.41	-2052.16	  235.71
     16.5139	  306.00	  308.55	-2078.30	  235.68
     16.5473	  310.00	  308.70	-2074.45	  235.65
     16.5807	  299.00	  308.86	-2085.61	  235.62
     16.6142	  331.00	  309.05	-2053.80	  235.58
     16.6476	  339.00	  309.27	-2046.02	  235.55
     16.6810	  338.00	  309.51	-2047.26	  235.52
     16.7144	  296.00	  309.79	-2089.54	  235.49
     16.7478	  318.00	  310.10	-2067.85	  235.45
     16.7813	  324.00	  310.46	-2062.21	  235.42
     16.8147	  335.00	  310.88	-2051.63	  235.39
     16.8481	  331.00	  311.36	-2056.11	  235.36
     16.8815	  335.00	  311.92	-2052.67	  235.33
     16.9150	  276.00	  312.57	-2112.32	  235.29
     16.9484	  325.00	  313.34	-2064.09	  235.26
     16.9818	  339.00	  314.25	-2051.00	  235.23
     17.0152	  334.00	  315.34	-2057.09	  235.20
     17.0486	  355.00	  316.65	-2037.40	  235.17
     17.0821	  336.00	  318.25	-2058.00	  235.13
     17.1155	  290.00	  320.23	-2105.98	  235.10
     17.1489	  318.00	  322.70	-2080.45	  235.07
     17.1823	  289.00	  325.86	-2112.61	  235.04
     17.2158	  325.00	  329.96	-2080.71	  235.01
     17.2492	  323.00	  335.46	-2088.21	  234.98
     17.2826	  342.00	  343.24	-2076.99	  234.95
     17.3160	  342.00	  355.17	-2088.92	  234.91
     17.3494	  322.00	  375.18	-2128.93	  234.88
     17.3829	  380.00	  410.40	-2106.15	  234.85
     17.4163	  407.00	  470.80	-2139.55	  234.82
     17.4497	  439.00	  565.08	-2201.83	  234.79
     17.4831	  582.00	  689.92	-2183.67	  234.76
     17.5166	  593.00	  808.74	-2291.49	  234.73
     17.5500	  687.00	  849.87	-2238.62	  234.70
     17.5834	  661.00	  785.97	-2200.72	  234.67
     17.6168	  541.00	  664.34	-2199.09	  234.64
     17.6502	  434.00	  545.60	-2187.35	  234.61
     17.6837	  403.00	  458.26	-2131.01	  234.57
     17.7171	  390.00	  403.06	-2088.81	  234.54
     17.7505	  352.00	  370.92	-2094.67	  234.51
     17.7839	  341.00	  352.46	-2087.21	  234.48
     17.8174	  293.00	  341.27	-2124.02	  234.45
     17.8508	  306.00	  333.86	-2103.61	  234.42
     17.8842	  349.00	  328.56	-2055.31	  234.39
     17.9176	  354.00	  324.58	-2046.33	  234.36
     17.9511	  332.00	  321.49	-2065.24	  234.33
     17.9845	  321.00	  319.05	-2073.80	  234.30
     18.0179	  283.00	  317.08	-2109.83	  234.27
     18.0513	  322.00	  315.48	-2069.23	  234.24
     18.0847	  343.00	  314.14	-2046.89	  234.21
     18.1182	  323.00	  313.03	-2065.78	  234.18
     18.1516	  320.00	  312.08	-2067.83	  234.15
     18.1850	  322.00	  311.27	-2065.02	  234.12
     18.2184	  334.00	  310.58	-2052.33	  234.09
     18.2519	  335.00	  309.97	-2050.72	  234.06
     18.2853	  305.00	  309.44	-2080.19	  234.03
     18.3187	  319.00	  308.97	-2065.72	  234.00
     18.3521	  298.00	  308.56	-2086.31	  233.97
     18.3855	  292.00	  308.19	-2091.94	  233.94
     18.4190	  278.00	  307.85	-2105.60	  233.91
     18.4524	  297.00	  307.56	-2086.31	  233.88
     18.4858	  321.00	  307.28	-2062.03	  233.85
     18.5192	  321.00	  307.04	-2061.79	  233.82
     18.5527	  309.00	  306.81	-2073.56	  233.80
     18.5861	  284.00	  306.60	-2098.35	  233.77
     18.6195	  279.00	  306.41	-2103.16	  233.74
     18.6529	  309.00	  306.23	-2072.98	  233.71
     18.6863	  295.00	  306.07	-2086.82	  233.68
     18.7198	  294.00	  305.92	-2087.67	  233.65
     18.7532	  296.00	  305.78	-2085.53	  233.62
     18.7866	  324.00	  305.64	-2057.39	  233.59
     18.8200	  294.00	  305.52	-2087.27	  233.56
     18.8535	  292.00	  305.40	-2089.15	  233.53
     18.8869	  278.00	  305.29	-2103.04	  233.51
     18.9203	  294.00	  305.18	-2086.93	  233.48
     18.9537	  283.00	  305.08	-2097.83	  233.45
     18.9872	  288.00	  304.99	-2092.74	  233.42
     19.0206	  300.00	  304.90	-2080.65	  233.39
     19.0540	  290.00	  304.81	-2090.56	  233.36
     19.0874	  282.00	  304.73	-2098.48	  233.33
     19.1208	  305.00	  304.65	-2075.40	  233.31
     19.1543	  364.00	  304.57	-2016.32	  233.28
     19.1877	  306.00	  304.50	-2074.25	  233.25
     19.2211	  296.00	  304.43	-2084.18	  233.22
     19.2545	  309.00	  304.36	-2071.11	  233.19
     19.2880	  267.00	  304.30	-2113.05	  233.16
     19.3214	  330.00	  304.23	-2049.98	  233.14
     19.3548	  280.00	  304.17	-2099.92	  233.11
     19.3882	  314.00	  304.11	-2065.86	  233.08
     19.4216	  300.00	  304.05	-2079.80	  233.05
     19.4551	  291.00	  304.00	-2088.75	  233.02
     19.4885	  307.00	  303.94	-2072.69	  233.00
     19.5219	  337.00	  303.89	-2042.64	  232.97
     19.5553	  302.00	  303.84	-2077.59	  232.94
     19.5888	  313.00	  303.79	-2066.54	  232.91
     19.6222	  328.00	  303.74	-2051.49	  232.89
     19.6556	  269.00	  303.69	-2110.44	  232.86
     19.6890	  300.00	  303.64	-2079.39	  232.83
     19.7224	  287.00	  303.59	-2092.34	  232.80
     19.7559	  264.00	  303.55	-2115.30	  232.78
     19.7893	  308.00	  303.50	-2071.25	  232.75
     19.8227	  288.00	  303.46	-2091.21	  232.72
     19.8561	  303.00	  303.42	-2076.17	  232.69
     19.8896	  285.00	  303.37	-2094.12	  232.67
     19.9230	  285.00	  303.33	-2094.08	  232.64
     19.9564	  313.00	  303.29	-2066.04	  232.61
     19.9898	  281.00	  303.25	-2098.00	  232.58
     20.0233	  305.00	  303.21	-2073.96	  232.56
     20.0567	  273.00	  303.17	-2105.92	  232.53
     20.0901	  314.00	  303.13	-2064.88	  232.50
     20.1235	  265.00	  303.09	-2113.84	  232.48
     20.1569	  248.00	  303.37	-2131.12	  232.45
     20.1904	  297.00	  303.34	-2082.09	  232.42
     20.2238	  269.00	  303.47	-2110.22	  232.40
     20.2572	  280.00	  303.44	-2099.19	  232.37
     20.2906	  309.00	  303.41	-2070.16	  232.34
     20.3241	  318.00	  303.38	-2061.13	  232.32
     20.3575	  282.00	  303.36	-2097.11	  232.29
     20.3909	  297.00	  303.33	-2082.08	  232.26
     20.4243	  281.00	  303.31	-2098.06	  232.24
     20.4577	  277.00	  303.28	-2102.03	  232.21
     20.4912	  276.00	  303.26	-2103.01	  232.18
     20.5246	  321.00	  303.24	-2057.99	  232.16
     20.5580	  295.00	  303.42	-2084.17	  232.13
     20.5914	  298.00	  303.40	-2081.15	  232.11
     20.6249	  293.00	  303.49	-2086.24	  232.08
     20.6583	  275.00	  303.47	-2104.22	  232.05
     20.6917	  294.00	  303.46	-2085.21	  232.03
     20.7251	  280.00	  303.44	-2099.19	  232.00
     20.7585	  299.00	  303.43	-2080.18	  231.98
     20.7920	  306.00	  303.42	-2073.17	  231.95
     20.8254	  273.00	  303.40	-2106.15	  231.92
     20.8588	  273.00	  303.39	-2106.14	  231.90
     20.8922	  298.00	  303.38	-2081.13	  231.87
     20.9257	  299.00	  303.37	-2080.12	  231.85
     20.9591	  267.00	  303.37	-2112.12	  231.82
     20.9925	  292.00	  303.36	-2087.11	  231.79
     21.0259	  295.00	  303.35	-2084.10	  231.77
     21.0593	  336.00	  303.34	-2043.09	  231.74
     21.0928	  296.00	  303.34	-2083.09	  231.72
     21.1262	  279.00	  303.34	-2100.09	  231.69
     21.1596	  257.00	  303.33	-2122.08	  231.67
     21.1930	  270.00	  303.33	-2109.08	  231.64
     21.2265	  312.00	  303.33	-2067.08	  231.62
     21.2599	  330.00	  303.33	-2049.08	  231.59
     21.2933	  306.00	  303.33	-2073.08	  231.57
     21.3267	  323.00	  303.33	-2056.08	  231.54
     21.3602	  325.00	  303.34	-2054.09	  231.52
     21.3936	  282.00	  303.34	-2097.09	  231.49
     21.4270	  292.00	  303.35	-2087.10	  231.47
     21.4604	  259.00	  303.36	-2120.11	  231.44
     21.4938	  276.00	  303.36	-2103.11	  231.42
     21.5273	  276.00	  303.37	-2103.12	  231.39
     21.5607	  292.00	  303.21	-2086.96	  231.37
     21.5941	  290.00	  303.22	-2088.97	  231.34
     21.6275	  321.00	  303.24	-2057.99	  231.32
     21.6610	  265.00	  303.26	-2114.01	  231.29
     21.6944	  312.00	  303.28	-2067.03	  231.27
     21.7278	  328.00	  303.31	-2051.06	  231.24
     21.7612	  294.00	  303.33	-2085.08	  231.22
     21.7946	  306.00	  303.36	-2073.11	  231.19
     21.8281	  308.00	  303.39	-2071.14	  231.17
     21.8615	  335.00	  303.42	-2044.17	  231.15
     21.8949	  352.00	  303.46	-2027.21	  231.12
     21.9283	  351.00	  303.49	-2028.24	  231.10
     21.9618	  333.00	  303.53	-2046.28	  231.07
     21.9952	  288.00	  303.58	-2091.33	  231.05
     22.0286	  323.00	  303.62	-2056.37	  231.02
     22.0620	  322.00	  303.67	-2057.42	  231.00
     22.0954	  281.00	  303.72	-2098.47	  230.98
     22.1289	  298.00	  303.78	-2081.53	  230.95
     22.1623	  275.00	  303.84	-2104.59	  230.93
     22.1957	  293.00	  303.90	-2086.65	  230.90
     22.2291	  306.00	  303.97	-2073.72	  230.88
     22.2626	  297.00	  304.05	-2082.80	  230.86
     22.2960	  282.00	  304.12	-2097.87	  230.83
     22.3294	  322.00	  304.21	-2057.96	  230.81
     22.3628	  306.00	  304.30	-2074.05	  230.79
     22.3962	  302.00	  304.39	-2078.14	  230.76
     22.4297	  292.00	  304.49	-2088.24	  230.74
     22.4631	  295.00	  304.60	-2085.35	  230.71
     22.4965	  330.00	  304.72	-2050.47	  230.69
     22.5299	  306.00	  304.85	-2074.60	  230.67
     22.5634	  296.00	  304.98	-2084.73	  230.64
     22.5968	  324.00	  305.12	-2056.87	  230.62
     22.6302	  274.00	  305.28	-2107.03	  230.60
     22.6636	  289.00	  305.44	-2092.19	  230.57
     22.6971	  299.00	  305.62	-2082.37	  230.55
     22.7305	  324.00	  305.81	-2057.56	  230.53
     22.7639	  314.00	  306.02	-2067.77	  230.50
     22.7973	  326.00	  306.24	-2055.99	  230.48
     22.8307	  276.00	  306.48	-2106.23	  230.46
     22.8642	  302.00	  306.73	-2080.48	  230.44
     22.8976	  304.00	  307.01	-2078.76	  230.41
     22.9310	  339.00	  307.32	-2044.07	  230.39
     22.9644	  296.00	  307.64	-2087.39	  230.37
     22.9979	  291.00	  308.00	-2092.75	  230.34
     23.0313	  306.00	  308.39	-2078.14	  230.32
     23.0647	  288.00	  308.81	-2096.56	  230.30
     23.0981	  282.00	  309.28	-2103.03	  230.28
     23.1315	  326.00	  309.79	-2059.54	  230.25
     23.1650	  302.00	  310.35	-2084.10	  230.23
     23.1984	  326.00	  310.96	-2060.71	  230.21
     23.2318	  310.00	  311.64	-2077.39	  230.18
     23.2652	  335.00	  312.40	-2053.15	  230.16
     23.2987	  348.00	  313.24	-2040.99	  230.14
     23.3321	  379.00	  314.18	-2010.93	  230.12
     23.3655	  330.00	  315.23	-2060.98	  230.10
     23.3989	  320.00	  316.41	-2072.16	  230.07
