ZrO2 monoclinic   Chi2:  3.3000  CELL:    5.14715   5.20256   5.32006   90.0000   99.1905   90.0000   SPGR: P 1 21/c 1             TEMP:      0.00
  1   2094     1.54060     1.54439     0.00000     0.09431     0.00000    0
   252     0     1
       0.00000      15.00000
 2Theta	Yobs	Ycal	Yobs-Ycal	Backg	Posr	(hkl)	K
     10.0299	  413.00	  295.54	-2075.75	  225.37
     10.0633	  409.00	  295.52	-2075.75	  225.34
     10.0968	  454.00	  295.50	-2075.75	  225.32
     10.1302	  479.00	  295.48	-2075.75	  225.30
     10.1636	  460.00	  295.46	-2075.75	  225.28
     10.1970	  432.00	  295.43	-2075.75	  225.26
     10.2304	  470.00	  295.41	-2075.75	  225.23
     10.2639	  422.00	  295.39	-2075.75	  225.21
     10.2973	  416.00	  295.37	-2075.75	  225.19
     10.3307	  398.00	  295.35	-2075.75	  225.17
     10.3641	  439.00	  295.33	-2075.75	  225.15
     10.3976	  445.00	  295.30	-2075.75	  225.13
     10.4310	  442.00	  295.28	-2075.75	  225.11
     10.4644	  439.00	  295.26	-2075.75	  225.08
     10.4978	  428.00	  295.24	-2075.75	  225.06
     10.5312	  428.00	  295.22	-2075.75	  225.04
     10.5647	  434.00	  295.20	-2075.75	  225.02
     10.5981	  445.00	  295.18	-2075.75	  225.00
     10.6315	  427.00	  295.16	-2075.75	  224.98
     10.6649	  413.00	  295.13	-2075.75	  224.96
     10.6984	  395.00	  295.11	-2075.75	  224.94
     10.7318	  429.00	  295.09	-2075.75	  224.91
     10.7652	  412.00	  295.07	-2075.75	  224.89
     10.7986	  397.00	  295.05	-2075.75	  224.87
     10.8321	  461.00	  295.03	-2075.75	  224.85
     10.8655	  419.00	  295.01	-2075.75	  224.83
     10.8989	  391.00	  294.99	-2075.75	  224.81
     10.9323	  422.00	  294.97	-2075.75	  224.79
     10.9657	  392.00	  294.95	-2075.75	  224.77
     10.9992	  381.00	  294.93	-2075.75	  224.75
     11.0326	  397.00	  294.90	-2075.75	  224.73
     11.0660	  411.00	  294.88	-2075.75	  224.71
     11.0994	  385.00	  294.86	-2075.75	  224.69
     11.1329	  419.00	  294.84	-2075.75	  224.67
     11.1663	  390.00	  294.82	-2075.75	  224.65
     11.1997	  434.00	  294.80	-2075.75	  224.63
     11.2331	  436.00	  294.78	-2075.75	  224.60
     11.2665	  392.00	  294.76	-2075.75	  224.58
     11.3000	  418.00	  294.74	-2075.75	  224.56
     11.3334	  424.00	  294.72	-2075.75	  224.54
     11.3668	  400.00	  294.70	-2075.75	  224.52
     11.4002	  436.00	  294.68	-2075.75	  224.50
     11.4337	  402.00	  294.66	-2075.75	  224.48
     11.4671	  396.00	  294.64	-2075.75	  224.46
     11.5005	  379.00	  294.62	-2075.75	  224.44
     11.5339	  420.00	  294.60	-2075.75	  224.42
     11.5673	  410.00	  294.58	-2075.75	  224.40
     11.6008	  402.00	  294.56	-2075.75	  224.38
     11.6342	  406.00	  294.54	-2075.75	  224.36
     11.6676	  411.00	  294.52	-2075.75	  224.35
     11.7010	  402.00	  294.50	-2075.75	  224.33
     11.7345	  378.00	  294.48	-2075.75	  224.31
     11.7679	  412.00	  294.46	-2075.75	  224.29
     11.8013	  388.00	  294.44	-2075.75	  224.27
     11.8347	  382.00	  294.42	-2075.75	  224.25
     11.8682	  384.00	  294.41	-2075.75	  224.23
     11.9016	  378.00	  294.39	-2075.75	  224.21
     11.9350	  394.00	  294.37	-2075.75	  224.19
     11.9684	  383.00	  294.35	-2075.75	  224.17
     12.0018	  366.00	  294.33	-2075.75	  224.15
     12.0353	  409.00	  294.31	-2075.75	  224.13
     12.0687	  399.00	  294.29	-2075.75	  224.11
     12.1021	  351.00	  294.27	-2075.75	  224.09
     12.1355	  385.00	  294.25	-2075.75	  224.07
     12.1690	  395.00	  294.23	-2075.75	  224.05
     12.2024	  390.00	  294.21	-2075.75	  224.04
     12.2358	  424.00	  294.19	-2075.75	  224.02
     12.2692	  416.00	  294.18	-2075.75	  224.00
     12.3026	  400.00	  294.16	-2075.75	  223.98
     12.3361	  397.00	  294.14	-2075.75	  223.96
     12.3695	  418.00	  294.12	-2075.75	  223.94
     12.4029	  388.00	  294.10	-2075.75	  223.92
     12.4363	  360.00	  294.08	-2075.75	  223.90
     12.4698	  350.00	  294.06	-2075.75	  223.89
     12.5032	  332.00	  294.04	-2075.75	  223.87
     12.5366	  349.00	  294.03	-2075.75	  223.85
     12.5700	  354.00	  294.01	-2075.75	  223.83
     12.6034	  362.00	  293.99	-2075.75	  223.81
     12.6369	  410.00	  293.97	-2075.75	  223.79
     12.6703	  371.00	  293.95	-2075.75	  223.77
     12.7037	  397.00	  293.93	-2075.75	  223.76
     12.7371	  353.00	  293.92	-2075.75	  223.74
     12.7706	  363.00	  293.90	-2075.75	  223.72
     12.8040	  388.00	  293.88	-2075.75	  223.70
     12.8374	  326.00	  293.86	-2075.75	  223.68
     12.8708	  384.00	  293.84	-2075.75	  223.67
     12.9042	  364.00	  293.82	-2075.75	  223.65
     12.9377	  409.00	  293.81	-2075.75	  223.63
     12.9711	  386.00	  293.79	-2075.75	  223.61
     13.0045	  361.00	  293.77	-2075.75	  223.59
     13.0379	  384.00	  293.75	-2075.75	  223.58
     13.0714	  413.00	  293.73	-2075.75	  223.56
     13.1048	  409.00	  293.72	-2075.75	  223.54
     13.1382	  367.00	  293.70	-2075.75	  223.52
     13.1716	  426.00	  293.68	-2075.75	  223.50
     13.2051	  383.00	  293.66	-2075.75	  223.49
     13.2385	  374.00	  293.65	-2075.75	  223.47
     13.2719	  380.00	  293.63	-2075.75	  223.45
     13.3053	  366.00	  293.61	-2075.75	  223.43
     13.3387	  399.00	  293.59	-2075.75	  223.42
     13.3722	  332.00	  293.58	-2075.75	  223.40
     13.4056	  351.00	  293.56	-2075.75	  223.38
     13.4390	  375.00	  293.54	-2075.75	  223.36
     13.4724	  377.00	  293.52	-2075.75	  223.35
     13.5059	  393.00	  293.51	-2075.75	  223.33
     13.5393	  359.00	  293.49	-2075.75	  223.31
     13.5727	  410.00	  293.47	-2075.75	  223.29
     13.6061	  374.00	  293.46	-2075.75	  223.28
     13.6395	  380.00	  293.44	-2075.75	  223.26
     13.6730	  371.00	  293.42	-2075.75	  223.24
     13.7064	  350.00	  293.40	-2075.75	  223.23
     13.7398	  389.00	  293.39	-2075.75	  223.21
     13.7732	  374.00	  293.37	-2075.75	  223.19
     13.8067	  354.00	  293.35	-2075.75	  223.18
     13.8401	  369.00	  293.34	-2075.75	  223.16
     13.8735	  368.00	  293.32	-2075.75	  223.14
     13.9069	  384.00	  293.30	-2075.75	  223.12
     13.9403	  341.00	  293.29	-2075.75	  223.11
     13.9738	  366.00	  293.27	-2075.75	  223.09
     14.0072	  381.00	  293.25	-2075.75	  223.07
     14.0406	  394.00	  293.24	-2075.75	  223.06
     14.0740	  403.00	  293.22	-2075.75	  223.04
     14.1075	  381.00	  293.20	-2075.75	  223.03
     14.1409	  348.00	  293.19	-2075.75	  223.01
     14.1743	  364.00	  293.17	-2075.75	  222.99
     14.2077	  331.00	  293.15	-2075.75	  222.98
     14.2412	  371.00	  293.14	-2075.75	  222.96
     14.2746	  385.00	  293.12	-2075.75	  222.94
     14.3080	  398.00	  293.10	-2075.75	  222.93
     14.3414	  361.00	  293.09	-2075.75	  222.91
     14.3748	  354.00	  293.07	-2075.75	  222.89
     14.4083	  362.00	  293.06	-2075.75	  222.88
     14.4417	  377.00	  293.04	-2075.75	  222.86
     14.4751	  364.00	  293.02	-2075.75	  222.85
     14.5085	  341.00	  293.01	-2075.75	  222.83
     14.5420	  359.00	  292.99	-2075.75	  222.81
     14.5754	  351.00	  292.98	-2075.75	  222.80
     14.6088	  350.00	  292.96	-2075.75	  222.78
     14.6422	  338.00	  292.94	-2075.75	  222.77
     14.6756	  339.00	  292.93	-2075.75	  222.75
     14.7091	  337.00	  292.91	-2075.75	  222.73
     14.7425	  342.00	  292.90	-2075.75	  222.72
     14.7759	  341.00	  292.88	-2075.75	  222.70
     14.8093	  390.00	  292.87	-2075.75	  222.69
     14.8428	  331.00	  292.85	-2075.75	  222.67
     14.8762	  335.00	  292.83	-2075.75	  222.66
     14.9096	  360.00	  292.82	-2075.75	  222.64
     14.9430	  335.00	  292.80	-2075.75	  222.63
     14.9764	  319.00	  292.79	-2075.75	  222.61
     15.0099	  355.00	  292.77	-2013.52	  222.59
     15.0433	  340.00	  293.22	-2028.97	  222.58
     15.0767	  348.00	  293.21	-2020.96	  222.56
     15.1101	  357.00	  293.21	-2011.96	  222.55
     15.1436	  357.00	  293.21	-2011.96	  222.53
     15.1770	  310.00	  293.21	-2058.96	  222.52
     15.2104	  339.00	  293.21	-2029.96	  222.50
     15.2438	  322.00	  293.21	-2046.96	  222.49
     15.2772	  341.00	  293.21	-2027.96	  222.47
     15.3107	  336.00	  293.21	-2032.96	  222.46
     15.3441	  339.00	  293.21	-2029.96	  222.44
     15.3775	  360.00	  293.22	-2008.97	  222.43
     15.4109	  314.00	  293.22	-2054.97	  222.41
     15.4444	  339.00	  293.23	-2029.98	  222.40
     15.4778	  349.00	  293.23	-2019.98	  222.38
     15.5112	  349.00	  293.24	-2019.99	  222.37
     15.5446	  311.00	  293.25	-2058.00	  222.35
     15.5781	  348.00	  293.26	-2021.01	  222.34
     15.6115	  310.00	  293.27	-2059.02	  222.32
     15.6449	  362.00	  293.28	-2007.03	  222.31
     15.6783	  363.00	  293.30	-2006.05	  222.29
     15.7117	  376.00	  293.31	-1993.06	  222.28
     15.7452	  398.00	  293.33	-1971.08	  222.27
     15.7786	  357.00	  293.35	-2012.10	  222.25
     15.8120	  343.00	  293.37	-2026.12	  222.24
     15.8454	  325.00	  293.39	-2044.14	  222.22
     15.8789	  321.00	  293.42	-2048.17	  222.21
     15.9123	  381.00	  293.45	-1988.20	  222.19
     15.9457	  293.00	  293.48	-2076.23	  222.18
     15.9791	  284.00	  293.51	-2085.26	  222.16
     16.0125	  325.00	  293.55	-2044.30	  222.15
     16.0460	  317.00	  293.59	-2052.34	  222.14
     16.0794	  373.00	  293.63	-1996.38	  222.12
     16.1128	  300.00	  293.68	-2069.43	  222.11
     16.1462	  330.00	  293.74	-2039.49	  222.09
     16.1797	  334.00	  293.79	-2035.54	  222.08
     16.2131	  311.00	  293.86	-2058.61	  222.07
     16.2465	  356.00	  293.93	-2013.68	  222.05
     16.2799	  354.00	  294.00	-2015.75	  222.04
     16.3133	  356.00	  294.09	-2013.84	  222.02
     16.3468	  326.00	  294.18	-2043.93	  222.01
     16.3802	  287.00	  294.28	-2083.03	  222.00
     16.4136	  342.00	  294.39	-2028.14	  221.98
     16.4470	  334.00	  294.52	-2036.27	  221.97
     16.4805	  332.00	  294.65	-2038.40	  221.96
     16.5139	  306.00	  294.80	-2064.55	  221.94
     16.5473	  310.00	  294.97	-2060.72	  221.93
     16.5807	  299.00	  295.16	-2071.91	  221.91
     16.6142	  331.00	  295.37	-2040.12	  221.90
     16.6476	  339.00	  295.60	-2032.35	  221.89
     16.6810	  338.00	  295.86	-2033.61	  221.87
     16.7144	  296.00	  296.16	-2075.91	  221.86
     16.7478	  318.00	  296.49	-2054.24	  221.85
     16.7813	  324.00	  296.88	-2048.62	  221.83
     16.8147	  335.00	  297.31	-2038.06	  221.82
     16.8481	  331.00	  297.81	-2042.56	  221.81
     16.8815	  335.00	  298.39	-2039.14	  221.79
     16.9150	  276.00	  299.06	-2098.81	  221.78
     16.9484	  325.00	  299.85	-2050.60	  221.77
     16.9818	  339.00	  300.78	-2037.53	  221.76
     17.0152	  334.00	  301.88	-2043.63	  221.74
     17.0486	  355.00	  303.21	-2023.96	  221.73
     17.0821	  336.00	  304.83	-2044.58	  221.72
     17.1155	  290.00	  306.83	-2092.58	  221.70
     17.1489	  318.00	  309.33	-2067.08	  221.69
     17.1823	  289.00	  312.50	-2099.25	  221.68
     17.2158	  325.00	  316.62	-2067.37	  221.66
     17.2492	  323.00	  322.14	-2074.89	  221.65
     17.2826	  342.00	  329.94	-2063.69	  221.64
     17.3160	  342.00	  341.89	-2075.64	  221.63
     17.3494	  322.00	  361.92	-2115.67	  221.61
     17.3829	  380.00	  397.15	-2092.90	  221.60
     17.4163	  407.00	  457.55	-2126.30	  221.59
     17.4497	  439.00	  551.79	-2188.54	  221.58
     17.4831	  582.00	  676.57	-2170.32	  221.56
     17.5166	  593.00	  795.37	-2278.12	  221.55
     17.5500	  687.00	  836.59	-2225.34	  221.54
     17.5834	  661.00	  772.83	-2187.58	  221.53
     17.6168	  541.00	  651.30	-2186.05	  221.51
     17.6502	  434.00	  532.62	-2174.37	  221.50
     17.6837	  403.00	  445.29	-2118.04	  221.49
     17.7171	  390.00	  390.07	-2075.82	  221.48
     17.7505	  352.00	  357.93	-2081.68	  221.46
     17.7839	  341.00	  339.47	-2074.22	  221.45
     17.8174	  293.00	  328.29	-2111.04	  221.44
     17.8508	  306.00	  320.89	-2090.64	  221.43
     17.8842	  349.00	  315.60	-2042.35	  221.42
     17.9176	  354.00	  311.63	-2033.38	  221.40
     17.9511	  332.00	  308.56	-2052.31	  221.39
     17.9845	  321.00	  306.14	-2060.89	  221.38
     18.0179	  283.00	  304.19	-2096.94	  221.37
     18.0513	  322.00	  302.59	-2056.34	  221.36
     18.0847	  343.00	  301.28	-2034.03	  221.34
     18.1182	  323.00	  300.18	-2052.93	  221.33
     18.1516	  320.00	  299.25	-2055.00	  221.32
     18.1850	  322.00	  298.46	-2052.21	  221.31
     18.2184	  334.00	  297.78	-2039.53	  221.30
     18.2519	  335.00	  297.19	-2037.94	  221.28
     18.2853	  305.00	  296.68	-2067.43	  221.27
     18.3187	  319.00	  296.23	-2052.98	  221.26
     18.3521	  298.00	  295.83	-2073.58	  221.25
     18.3855	  292.00	  295.48	-2079.23	  221.24
     18.4190	  278.00	  295.17	-2092.92	  221.23
     18.4524	  297.00	  294.88	-2073.63	  221.22
     18.4858	  321.00	  294.63	-2049.38	  221.20
     18.5192	  321.00	  294.40	-2049.15	  221.19
     18.5527	  309.00	  294.19	-2060.94	  221.18
     18.5861	  284.00	  294.00	-2085.75	  221.17
     18.6195	  279.00	  293.83	-2090.58	  221.16
     18.6529	  309.00	  293.67	-2060.42	  221.15
     18.6863	  295.00	  293.52	-2074.27	  221.14
     18.7198	  294.00	  293.39	-2075.14	  221.12
     18.7532	  296.00	  293.26	-2073.01	  221.11
     18.7866	  324.00	  293.15	-2044.90	  221.10
     18.8200	  294.00	  293.04	-2074.79	  221.09
     18.8535	  292.00	  292.94	-2076.69	  221.08
     18.8869	  278.00	  292.85	-2090.60	  221.07
     18.9203	  294.00	  292.76	-2074.51	  221.06
     18.9537	  283.00	  292.68	-2085.43	  221.05
     18.9872	  288.00	  292.60	-2080.35	  221.04
     19.0206	  300.00	  292.53	-2068.28	  221.03
     19.0540	  290.00	  292.46	-2078.21	  221.01
     19.0874	  282.00	  292.39	-2086.14	  221.00
     19.1208	  305.00	  292.33	-2063.08	  220.99
     19.1543	  364.00	  292.27	-2004.02	  220.98
     19.1877	  306.00	  292.22	-2061.97	  220.97
     19.2211	  296.00	  292.17	-2071.92	  220.96
     19.2545	  309.00	  292.11	-2058.86	  220.95
     19.2880	  267.00	  292.07	-2100.82	  220.94
     19.3214	  330.00	  292.02	-2037.77	  220.93
     19.3548	  280.00	  291.98	-2087.73	  220.92
     19.3882	  314.00	  291.93	-2053.68	  220.91
     19.4216	  300.00	  291.89	-2067.64	  220.90
     19.4551	  291.00	  291.86	-2076.61	  220.89
     19.4885	  307.00	  291.82	-2060.57	  220.88
     19.5219	  337.00	  291.78	-2030.53	  220.87
     19.5553	  302.00	  291.75	-2065.50	  220.86
     19.5888	  313.00	  291.71	-2054.46	  220.85
     19.6222	  328.00	  291.68	-2039.43	  220.84
     19.6556	  269.00	  291.65	-2098.40	  220.82
     19.6890	  300.00	  291.62	-2067.37	  220.81
     19.7224	  287.00	  291.59	-2080.34	  220.80
     19.7559	  264.00	  291.56	-2103.31	  220.79
     19.7893	  308.00	  291.53	-2059.28	  220.78
     19.8227	  288.00	  291.51	-2079.26	  220.77
     19.8561	  303.00	  291.48	-2064.23	  220.76
     19.8896	  285.00	  291.46	-2082.21	  220.75
     19.9230	  285.00	  291.43	-2082.18	  220.74
     19.9564	  313.00	  291.41	-2054.16	  220.73
     19.9898	  281.00	  291.38	-2086.13	  220.72
     20.0233	  305.00	  291.36	-2062.11	  220.71
     20.0567	  273.00	  291.34	-2094.09	  220.70
     20.0901	  314.00	  291.32	-2053.07	  220.69
     20.1235	  265.00	  291.30	-2102.05	  220.69
     20.1569	  248.00	  291.59	-2119.34	  220.68
     20.1904	  297.00	  291.58	-2070.33	  220.67
     20.2238	  269.00	  291.72	-2098.47	  220.66
     20.2572	  280.00	  291.71	-2087.46	  220.65
     20.2906	  309.00	  291.70	-2058.45	  220.64
     20.3241	  318.00	  291.69	-2049.44	  220.63
     20.3575	  282.00	  291.68	-2085.43	  220.62
     20.3909	  297.00	  291.67	-2070.42	  220.61
     20.4243	  281.00	  291.67	-2086.42	  220.60
     20.4577	  277.00	  291.66	-2090.41	  220.59
     20.4912	  276.00	  291.65	-2091.40	  220.58
     20.5246	  321.00	  291.64	-2046.39	  220.57
     20.5580	  295.00	  291.85	-2072.60	  220.56
     20.5914	  298.00	  291.84	-2069.59	  220.55
     20.6249	  293.00	  291.95	-2074.70	  220.54
     20.6583	  275.00	  291.95	-2092.70	  220.53
     20.6917	  294.00	  291.95	-2073.70	  220.52
     20.7251	  280.00	  291.95	-2087.70	  220.52
     20.7585	  299.00	  291.96	-2068.71	  220.51
     20.7920	  306.00	  291.96	-2061.71	  220.50
     20.8254	  273.00	  291.97	-2094.72	  220.49
     20.8588	  273.00	  291.97	-2094.72	  220.48
     20.8922	  298.00	  291.98	-2069.73	  220.47
     20.9257	  299.00	  291.98	-2068.73	  220.46
     20.9591	  267.00	  291.99	-2100.74	  220.45
     20.9925	  292.00	  292.00	-2075.75	  220.44
     21.0259	  295.00	  292.01	-2072.76	  220.43
     21.0593	  336.00	  292.02	-2031.77	  220.43
     21.0928	  296.00	  292.03	-2071.78	  220.42
     21.1262	  279.00	  292.05	-2088.80	  220.41
     21.1596	  257.00	  292.06	-2110.81	  220.40
     21.1930	  270.00	  292.07	-2097.82	  220.39
     21.2265	  312.00	  292.09	-2055.84	  220.38
     21.2599	  330.00	  292.11	-2037.86	  220.37
     21.2933	  306.00	  292.12	-2061.87	  220.36
     21.3267	  323.00	  292.14	-2044.89	  220.36
     21.3602	  325.00	  292.16	-2042.91	  220.35
     21.3936	  282.00	  292.19	-2085.94	  220.34
     21.4270	  292.00	  292.21	-2075.96	  220.33
     21.4604	  259.00	  292.23	-2108.98	  220.32
     21.4938	  276.00	  292.26	-2092.01	  220.31
     21.5273	  276.00	  292.28	-2092.03	  220.30
     21.5607	  292.00	  292.19	-2075.94	  220.30
     21.5941	  290.00	  292.17	-2077.92	  220.29
     21.6275	  321.00	  292.20	-2046.95	  220.28
     21.6610	  265.00	  292.24	-2102.99	  220.27
     21.6944	  312.00	  292.28	-2056.03	  220.26
     21.7278	  328.00	  292.32	-2040.07	  220.25
     21.7612	  294.00	  292.36	-2074.11	  220.25
     21.7946	  306.00	  292.40	-2062.15	  220.24
     21.8281	  308.00	  292.45	-2060.20	  220.23
     21.8615	  335.00	  292.50	-2033.25	  220.22
     21.8949	  352.00	  292.55	-2016.30	  220.21
     21.9283	  351.00	  292.60	-2017.35	  220.21
     21.9618	  333.00	  292.66	-2035.41	  220.20
     21.9952	  288.00	  292.72	-2080.47	  220.19
     22.0286	  323.00	  292.78	-2045.53	  220.18
     22.0620	  322.00	  292.84	-2046.59	  220.17
     22.0954	  281.00	  292.91	-2087.66	  220.17
     22.1289	  298.00	  292.98	-2070.73	  220.16
     22.1623	  275.00	  293.06	-2093.81	  220.15
     22.1957	  293.00	  293.14	-2075.89	  220.14
     22.2291	  306.00	  293.22	-2062.97	  220.13
     22.2626	  297.00	  293.31	-2072.06	  220.13
     22.2960	  282.00	  293.41	-2087.16	  220.12
     22.3294	  322.00	  293.51	-2047.26	  220.11
     22.3628	  306.00	  293.61	-2063.36	  220.10
     22.3962	  302.00	  293.72	-2067.47	  220.10
     22.4297	  292.00	  293.84	-2077.59	  220.09
     22.4631	  295.00	  293.97	-2074.72	  220.08
     22.4965	  330.00	  294.10	-2039.85	  220.07
     22.5299	  306.00	  294.24	-2063.99	  220.07
     22.5634	  296.00	  294.39	-2074.14	  220.06
     22.5968	  324.00	  294.55	-2046.30	  220.05
     22.6302	  274.00	  294.72	-2096.47	  220.04
     22.6636	  289.00	  294.90	-2081.65	  220.04
     22.6971	  299.00	  295.10	-2071.85	  220.03
     22.7305	  324.00	  295.30	-2047.05	  220.02
     22.7639	  314.00	  295.52	-2057.27	  220.01
     22.7973	  326.00	  295.76	-2045.51	  220.01
     22.8307	  276.00	  296.02	-2095.77	  220.00
     22.8642	  302.00	  296.29	-2070.04	  219.99
     22.8976	  304.00	  296.59	-2068.34	  219.99
     22.9310	  339.00	  296.91	-2033.66	  219.98
     22.9644	  296.00	  297.25	-2077.00	  219.97
     22.9979	  291.00	  297.62	-2082.37	  219.96
     23.0313	  306.00	  298.03	-2067.78	  219.96
     23.0647	  288.00	  298.47	-2086.22	  219.95
     23.0981	  282.00	  298.95	-2092.70	  219.94
     23.1315	  326.00	  299.47	-2049.22	  219.94
     23.1650	  302.00	  300.05	-2073.80	  219.93
     23.1984	  326.00	  300.68	-2050.43	  219.92
     23.2318	  310.00	  301.38	-2067.13	  219.92
     23.2652	  335.00	  302.15	-2042.90	  219.91
     23.2987	  348.00	  303.00	-2030.75	  219.90
     23.3321	  379.00	  303.96	-2000.71	  219.90
     23.3655	  330.00	  305.03	-2050.78	  219.89
     23.3989	  320.00	  306.23	-2061.98	  219.88
