 Cr2O3   Chi2:  2.2921  CELL:    4.95852   4.95852  13.59593   90.0000   90.0000  120.0000   SPGR: R -3 c                 TEMP:      0.00
  1   2394     1.54060     1.54439     0.00000    -0.07410     0.00000    0
    88     0     1
       0.00000      20.00000
 2Theta	Yobs	Ycal	Yobs-Ycal	Backg	Posr	(hkl)	K
     20.0167	  42.000	  33.003	-236.753	  31.456
     20.0501	  42.000	  32.976	-236.726	  31.428
     20.0836	  31.000	  32.948	-247.698	  31.401
     20.1170	  33.000	  32.921	-245.671	  31.374
     20.1504	  39.000	  32.893	-239.643	  31.346
     20.1838	  33.000	  32.866	-245.616	  31.319
     20.2172	  42.000	  32.838	-236.588	  31.291
     20.2507	  36.000	  32.811	-242.561	  31.264
     20.2841	  45.000	  32.784	-233.534	  31.236
     20.3175	  27.000	  32.756	-251.506	  31.209
     20.3509	  35.000	  32.729	-243.479	  31.182
     20.3844	  25.000	  32.701	-253.451	  31.154
     20.4178	  36.000	  32.674	-242.424	  31.127
     20.4512	  28.000	  32.647	-250.397	  31.100
     20.4846	  35.000	  32.619	-243.369	  31.072
     20.5181	  40.000	  32.592	-238.342	  31.045
     20.5515	  37.000	  32.565	-241.315	  31.018
     20.5849	  40.000	  32.538	-238.288	  30.991
     20.6183	  35.000	  32.510	-243.260	  30.963
     20.6517	  39.000	  32.483	-239.233	  30.936
     20.6852	  35.000	  32.456	-243.206	  30.909
     20.7186	  29.000	  32.429	-249.179	  30.882
     20.7520	  43.000	  32.402	-235.152	  30.854
     20.7854	  31.000	  32.374	-247.124	  30.827
     20.8189	  39.000	  32.347	-239.097	  30.800
     20.8523	  39.000	  32.320	-239.070	  30.773
     20.8857	  34.000	  32.293	-244.043	  30.746
     20.9191	  28.000	  32.266	-250.016	  30.719
     20.9525	  27.000	  32.239	-250.989	  30.692
     20.9860	  42.000	  32.212	-235.962	  30.664
     21.0194	  29.000	  32.184	-248.934	  30.637
     21.0528	  28.000	  32.157	-249.907	  30.610
     21.0862	  31.000	  32.130	-246.880	  30.583
     21.1197	  28.000	  32.103	-249.853	  30.556
     21.1531	  42.000	  32.076	-235.826	  30.529
     21.1865	  46.000	  32.049	-231.799	  30.502
     21.2199	  38.000	  32.022	-239.772	  30.475
     21.2533	  32.000	  31.995	-245.745	  30.448
     21.2868	  26.000	  32.109	-251.859	  30.421
     21.3202	  26.000	  32.085	-251.835	  30.394
     21.3536	  31.000	  32.131	-246.881	  30.367
     21.3870	  31.000	  32.109	-246.859	  30.340
     21.4205	  34.000	  32.087	-243.837	  30.313
     21.4539	  37.000	  32.065	-240.815	  30.287
     21.4873	  38.000	  32.044	-239.794	  30.260
     21.5207	  38.000	  32.022	-239.772	  30.233
     21.5541	  25.000	  32.001	-252.751	  30.206
     21.5876	  40.000	  31.980	-237.730	  30.179
     21.6210	  32.000	  31.959	-245.709	  30.152
     21.6544	  31.000	  31.939	-246.689	  30.125
     21.6878	  34.000	  31.918	-243.668	  30.099
     21.7213	  43.000	  31.898	-234.648	  30.072
     21.7547	  39.000	  31.879	-238.629	  30.045
     21.7881	  25.000	  31.859	-252.609	  30.018
     21.8215	  34.000	  31.840	-243.590	  29.992
     21.8550	  34.000	  31.821	-243.571	  29.965
     21.8884	  26.000	  31.802	-251.552	  29.938
     21.9218	  37.000	  31.784	-240.534	  29.911
     21.9552	  31.000	  31.766	-246.516	  29.885
     21.9886	  38.000	  31.749	-239.499	  29.858
     22.0221	  39.000	  31.731	-238.481	  29.831
     22.0555	  36.000	  31.715	-241.465	  29.805
     22.0889	  42.000	  31.698	-235.448	  29.778
     22.1223	  37.000	  31.683	-240.433	  29.751
     22.1558	  37.000	  31.667	-240.417	  29.725
     22.1892	  37.000	  31.653	-240.403	  29.698
     22.2226	  28.000	  31.638	-249.388	  29.672
     22.2560	  28.000	  31.625	-249.375	  29.645
     22.2894	  33.000	  31.612	-244.362	  29.619
     22.3229	  25.000	  31.599	-252.349	  29.592
     22.3563	  25.000	  31.587	-252.337	  29.566
     22.3897	  31.000	  31.576	-246.326	  29.539
     22.4231	  31.000	  31.566	-246.316	  29.513
     22.4566	  34.000	  31.557	-243.307	  29.486
     22.4900	  39.000	  31.548	-238.298	  29.460
     22.5234	  32.000	  31.541	-245.291	  29.433
     22.5568	  31.000	  31.535	-246.285	  29.407
     22.5902	  39.000	  31.529	-238.279	  29.380
     22.6237	  36.000	  31.525	-241.275	  29.354
     22.6571	  45.000	  31.522	-232.272	  29.328
     22.6905	  33.000	  31.521	-244.271	  29.301
     22.7239	  35.000	  31.520	-242.270	  29.275
     22.7574	  36.000	  31.522	-241.272	  29.248
     22.7908	  31.000	  31.525	-246.275	  29.222
     22.8242	  35.000	  31.530	-242.280	  29.196
     22.8576	  45.000	  31.537	-232.287	  29.169
     22.8911	  32.000	  31.547	-245.297	  29.143
     22.9245	  22.000	  31.558	-255.308	  29.117
     22.9579	  31.000	  31.573	-246.323	  29.091
     22.9913	  45.000	  31.590	-232.340	  29.064
     23.0247	  21.000	  31.610	-256.360	  29.038
     23.0582	  29.000	  31.633	-248.383	  29.012
     23.0916	  32.000	  31.661	-245.411	  28.986
     23.1250	  34.000	  31.692	-243.442	  28.960
     23.1584	  45.000	  31.728	-232.478	  28.933
     23.1919	  45.000	  31.769	-232.519	  28.907
     23.2253	  49.000	  31.816	-228.566	  28.881
     23.2587	  54.000	  31.869	-223.619	  28.855
     23.2921	  40.000	  31.928	-237.678	  28.829
     23.3255	  66.000	  31.996	-211.746	  28.803
     23.3590	  57.000	  32.072	-220.822	  28.777
     23.3924	  88.000	  32.158	-189.908	  28.750
     23.4258	  60.000	  32.255	-218.005	  28.724
     23.4592	  52.000	  32.365	-226.115	  28.698
     23.4927	  50.000	  32.490	-228.240	  28.672
     23.5261	  52.000	  32.631	-226.381	  28.646
     23.5595	  32.000	  32.791	-246.541	  28.620
     23.5929	  38.000	  32.973	-240.723	  28.594
     23.6263	  42.000	  33.181	-236.931	  28.568
     23.6598	  34.000	  33.420	-245.170	  28.542
     23.6932	  37.000	  33.694	-242.444	  28.516
     23.7266	  23.000	  34.010	-256.760	  28.490
     23.7600	  34.000	  34.377	-246.127	  28.464
     23.7935	  37.000	  34.805	-243.555	  28.439
     23.8269	  35.000	  35.308	-246.058	  28.413
     23.8603	  43.000	  35.902	-238.652	  28.387
     23.8937	  35.000	  36.610	-247.360	  28.361
     23.9271	  37.000	  37.463	-246.213	  28.335
     23.9606	  32.000	  38.498	-252.248	  28.309
     23.9940	  45.000	  39.772	-240.522	  28.283
     24.0274	  44.000	  41.361	-243.111	  28.258
     24.0608	  44.000	  43.373	-245.123	  28.232
     24.0943	  45.000	  45.969	-246.719	  28.206
     24.1277	  70.000	  49.395	-225.145	  28.180
     24.1611	  80.000	  54.049	-219.799	  28.154
     24.1945	  60.000	  60.700	-246.450	  28.129
     24.2280	  88.000	  71.274	-229.024	  28.103
     24.2614	  86.000	  91.203	-250.953	  28.077
     24.2948	 153.000	 133.669	-226.419	  28.052
     24.3282	 205.000	 221.092	-261.842	  28.026
     24.3616	 415.000	 372.827	-203.577	  28.000
     24.3951	 585.000	 571.945	-232.695	  27.975
     24.4285	 764.000	 718.762	-200.512	  27.949
     24.4619	 736.000	 708.262	-218.012	  27.923
     24.4953	 604.000	 577.306	-219.056	  27.898
     24.5288	 352.000	 396.128	-289.878	  27.872
     24.5622	 209.000	 243.468	-280.218	  27.846
     24.5956	 140.000	 148.345	-254.095	  27.821
     24.6290	  87.000	  98.609	-257.359	  27.795
     24.6624	  77.000	  74.480	-243.230	  27.770
     24.6959	  87.000	  62.081	-220.831	  27.744
     24.7293	  59.000	  54.677	-241.427	  27.719
     24.7627	  59.000	  49.641	-236.391	  27.693
     24.7961	  45.000	  45.969	-246.719	  27.668
     24.8296	  49.000	  43.191	-239.941	  27.642
     24.8630	  53.000	  41.036	-233.786	  27.617
     24.8964	  45.000	  39.330	-240.080	  27.591
     24.9298	  47.000	  37.956	-236.706	  27.566
     24.9632	  38.000	  36.832	-244.582	  27.541
     24.9967	  44.000	  35.901	-237.651	  27.515
     25.0301	  31.000	  35.119	-249.869	  27.490
     25.0635	  48.000	  34.456	-232.206	  27.464
     25.0969	  34.000	  33.887	-245.637	  27.439
     25.1304	  26.000	  33.397	-253.147	  27.414
     25.1638	  33.000	  32.969	-245.719	  27.388
     25.1972	  25.000	  32.593	-253.343	  27.363
     25.2306	  25.000	  32.262	-253.012	  27.338
     25.2640	  25.000	  31.967	-252.717	  27.312
     25.2975	  35.000	  31.703	-242.453	  27.287
     25.3309	  27.000	  31.465	-250.215	  27.262
     25.3643	  38.000	  31.250	-239.000	  27.237
     25.3977	  19.000	  31.055	-257.805	  27.211
     25.4312	  26.000	  30.877	-250.627	  27.186
     25.4646	  33.000	  30.713	-243.463	  27.161
     25.4980	  37.000	  30.563	-239.313	  27.136
     25.5314	  40.000	  30.424	-236.174	  27.111
     25.5649	  38.000	  30.295	-238.045	  27.085
     25.5983	  36.000	  30.174	-239.924	  27.060
     25.6317	  32.000	  30.062	-243.812	  27.035
     25.6651	  23.000	  29.957	-252.707	  27.010
     25.6985	  34.000	  29.858	-241.608	  26.985
     25.7320	  23.000	  29.765	-252.515	  26.960
     25.7654	  40.000	  29.677	-235.427	  26.935
     25.7988	  27.000	  29.594	-248.344	  26.910
     25.8322	  28.000	  29.515	-247.265	  26.885
     25.8657	  28.000	  29.439	-247.189	  26.860
     25.8991	  23.000	  29.367	-252.117	  26.835
     25.9325	  19.000	  29.298	-256.048	  26.809
     25.9659	  29.000	  29.232	-245.982	  26.784
     25.9993	  15.000	  29.169	-259.919	  26.760
     26.0328	  29.000	  29.108	-245.858	  26.735
     26.0662	  40.000	  29.049	-234.799	  26.710
     26.0996	  34.000	  28.993	-240.743	  26.685
     26.1330	  19.000	  28.938	-255.688	  26.660
     26.1665	  26.000	  28.885	-248.635	  26.635
     26.1999	  31.000	  28.833	-243.583	  26.610
     26.2333	  31.000	  28.784	-243.534	  26.585
     26.2667	  23.000	  28.735	-251.485	  26.560
     26.3001	  31.000	  28.688	-243.438	  26.535
     26.3336	  31.000	  28.642	-243.392	  26.510
     26.3670	  27.000	  28.597	-247.347	  26.486
     26.4004	  23.000	  28.553	-251.303	  26.461
     26.4338	  33.000	  28.510	-241.260	  26.436
     26.4673	  21.000	  28.468	-253.218	  26.411
     26.5007	  32.000	  28.426	-242.176	  26.386
     26.5341	  26.000	  28.386	-248.136	  26.362
     26.5675	  29.000	  28.346	-245.096	  26.337
     26.6010	  27.000	  28.307	-247.057	  26.312
     26.6344	  28.000	  28.269	-246.019	  26.288
     26.6678	  33.000	  28.231	-240.981	  26.263
     26.7012	  32.000	  28.194	-241.944	  26.238
     26.7346	  23.000	  28.158	-250.908	  26.213
     26.7681	  35.000	  28.122	-238.872	  26.189
     26.8015	  17.000	  28.086	-256.836	  26.164
     26.8349	   9.000	  28.051	-264.801	  26.140
     26.8683	  27.000	  28.017	-246.767	  26.115
     26.9018	  25.000	  27.982	-248.732	  26.090
     26.9352	  34.000	  27.949	-239.699	  26.066
     26.9686	  27.000	  27.915	-246.665	  26.041
     27.0020	  17.000	  27.882	-256.632	  26.017
     27.0354	  34.000	  27.849	-239.599	  25.992
     27.0689	  23.000	  27.817	-250.567	  25.968
     27.1023	  15.000	  27.785	-258.535	  25.943
     27.1357	  27.000	  27.753	-246.503	  25.919
     27.1691	  21.000	  27.722	-252.472	  25.894
     27.2026	  38.000	  27.690	-235.440	  25.870
     27.2360	  23.000	  27.659	-250.409	  25.845
     27.2694	  19.000	  27.629	-254.379	  25.821
     27.3028	  29.000	  27.598	-244.348	  25.796
     27.3362	  26.000	  27.568	-247.318	  25.772
     27.3697	  28.000	  27.538	-245.288	  25.747
     27.4031	  23.000	  27.508	-250.258	  25.723
     27.4365	  22.000	  27.478	-251.228	  25.699
     27.4699	  18.000	  27.449	-255.199	  25.674
     27.5034	  32.000	  27.420	-241.170	  25.650
     27.5368	  27.000	  27.390	-246.140	  25.626
     27.5702	  28.000	  27.361	-245.111	  25.601
     27.6036	  28.000	  27.333	-245.083	  25.577
     27.6371	  21.000	  27.304	-252.054	  25.553
     27.6705	  22.000	  27.276	-251.026	  25.528
     27.7039	  18.000	  27.247	-254.997	  25.504
     27.7373	  35.000	  27.027	-237.777	  25.480
     27.7707	  23.000	  27.003	-249.753	  25.456
     27.8042	  31.000	  26.979	-241.729	  25.431
     27.8376	  36.000	  26.954	-236.704	  25.407
     27.8710	  24.000	  26.930	-248.680	  25.383
     27.9044	  36.000	  26.906	-236.656	  25.359
     27.9379	  27.000	  26.882	-245.632	  25.335
     27.9713	  32.000	  26.858	-240.608	  25.311
     28.0047	  32.000	  26.834	-240.583	  25.286
     28.0381	  26.000	  26.809	-246.559	  25.262
     28.0715	  33.000	  26.785	-239.535	  25.238
     28.1050	  27.000	  26.761	-245.511	  25.214
     28.1384	  39.000	  26.737	-233.487	  25.190
     28.1718	  26.000	  26.713	-246.463	  25.166
     28.2052	  26.000	  26.689	-246.439	  25.142
     28.2387	  24.000	  26.665	-248.415	  25.118
     28.2721	  29.000	  26.641	-243.391	  25.094
     28.3055	  27.000	  26.617	-245.367	  25.070
     28.3389	  34.000	  26.593	-238.343	  25.046
     28.3723	  26.000	  26.569	-246.319	  25.022
     28.4058	  26.000	  26.545	-246.295	  24.998
     28.4392	  26.000	  26.521	-246.271	  24.974
     28.4726	  28.000	  26.497	-244.247	  24.950
     28.5060	  37.000	  26.473	-235.223	  24.926
     28.5395	  23.000	  26.449	-249.199	  24.902
     28.5729	  17.000	  26.425	-255.175	  24.878
     28.6063	  25.000	  26.401	-247.151	  24.854
     28.6397	  28.000	  26.378	-244.128	  24.830
     28.6731	  38.000	  26.354	-234.104	  24.807
     28.7066	  26.000	  26.330	-246.080	  24.783
     28.7400	  25.000	  26.306	-247.056	  24.759
     28.7734	  25.000	  26.282	-247.032	  24.735
     28.8068	  26.000	  26.258	-246.008	  24.711
     28.8403	  34.000	  26.235	-237.985	  24.688
     28.8737	  35.000	  26.211	-236.961	  24.664
     28.9071	  32.000	  26.187	-239.937	  24.640
     28.9405	  32.000	  26.163	-239.913	  24.616
     28.9740	  24.000	  26.140	-247.890	  24.593
     29.0074	  38.000	  26.116	-233.866	  24.569
     29.0408	  27.000	  26.092	-244.842	  24.545
     29.0742	  33.000	  26.069	-238.819	  24.521
     29.1076	  27.000	  26.045	-244.795	  24.498
     29.1411	  29.000	  26.021	-242.771	  24.474
     29.1745	  35.000	  25.998	-236.748	  24.451
     29.2079	  32.000	  25.974	-239.724	  24.427
     29.2413	  34.000	  25.950	-237.700	  24.403
     29.2748	  33.000	  25.927	-238.677	  24.380
     29.3082	  42.000	  25.903	-229.653	  24.356
     29.3416	  33.000	  25.880	-238.630	  24.333
     29.3750	  34.000	  25.856	-237.606	  24.309
     29.4084	  39.000	  25.833	-232.583	  24.285
     29.4419	  32.000	  25.809	-239.559	  24.262
     29.4753	  36.000	  25.785	-235.535	  24.238
     29.5087	  39.000	  25.762	-232.512	  24.215
     29.5421	  22.000	  25.738	-249.488	  24.191
     29.5756	  35.000	  25.715	-236.465	  24.168
     29.6090	  39.000	  25.692	-232.442	  24.144
     29.6424	  35.000	  25.668	-236.418	  24.121
     29.6758	  34.000	  25.645	-237.395	  24.098
     29.7092	  33.000	  25.621	-238.371	  24.074
     29.7427	  47.000	  25.598	-224.348	  24.051
     29.7761	  39.000	  25.574	-232.324	  24.027
     29.8095	  45.000	  25.551	-226.301	  24.004
     29.8429	  45.000	  25.528	-226.278	  23.981
     29.8764	  36.000	  25.504	-235.254	  23.957
     29.9098	  43.000	  25.481	-228.231	  23.934
     29.9432	  22.000	  25.458	-249.208	  23.911
     29.9766	  49.000	  25.434	-222.184	  23.887
     30.0101	  54.000	  25.411	-217.161	  23.864
     30.0435	  36.000	  25.388	-235.138	  23.841
     30.0769	  54.000	  25.365	-217.115	  23.817
     30.1103	  44.000	  25.341	-227.091	  23.794
     30.1437	  62.000	  25.318	-209.068	  23.771
     30.1772	  54.000	  25.295	-217.045	  23.748
     30.2106	  63.000	  25.272	-208.022	  23.725
     30.2440	  62.000	  25.249	-208.999	  23.701
     30.2774	  49.000	  25.225	-221.975	  23.678
     30.3109	  60.000	  25.202	-210.952	  23.655
     30.3443	  55.000	  25.425	-216.175	  23.632
     30.3777	  50.000	  25.407	-221.157	  23.609
     30.4111	  58.000	  25.390	-213.140	  23.586
     30.4445	  48.000	  25.496	-223.246	  23.563
     30.4780	  48.000	  25.481	-223.231	  23.539
     30.5114	  36.000	  25.467	-235.217	  23.516
     30.5448	  50.000	  25.453	-221.203	  23.493
     30.5782	  50.000	  25.439	-221.189	  23.470
     30.6117	  49.000	  25.426	-222.176	  23.447
     30.6451	  55.000	  25.413	-216.163	  23.424
     30.6785	  50.000	  25.400	-221.150	  23.401
     30.7119	  48.000	  25.388	-223.138	  23.378
     30.7453	  38.000	  25.376	-233.126	  23.355
     30.7788	  39.000	  25.364	-232.114	  23.332
     30.8122	  34.000	  25.353	-237.103	  23.309
     30.8456	  42.000	  25.342	-229.092	  23.286
     30.8790	  50.000	  25.332	-221.082	  23.263
     30.9125	  36.000	  25.323	-235.073	  23.241
     30.9459	  34.000	  25.314	-237.064	  23.218
     30.9793	  42.000	  25.305	-229.055	  23.195
     31.0127	  26.000	  25.297	-245.047	  23.172
     31.0462	  29.000	  25.290	-242.040	  23.149
     31.0796	  43.000	  25.283	-228.033	  23.126
     31.1130	  31.000	  25.277	-240.027	  23.103
     31.1464	  32.000	  25.272	-239.022	  23.081
     31.1798	  26.000	  25.267	-245.017	  23.058
     31.2133	  35.000	  25.263	-236.013	  23.035
     31.2467	  36.000	  25.260	-235.010	  23.012
     31.2801	  25.000	  25.258	-246.008	  22.989
     31.3135	  25.000	  25.257	-246.007	  22.967
     31.3470	  33.000	  25.257	-238.007	  22.944
     31.3804	  29.000	  25.258	-242.008	  22.921
     31.4138	  37.000	  25.260	-234.010	  22.899
     31.4472	  34.000	  25.264	-237.014	  22.876
     31.4806	  33.000	  25.268	-238.018	  22.853
     31.5141	  34.000	  25.274	-237.024	  22.831
     31.5475	  39.000	  25.281	-232.031	  22.808
     31.5809	  32.000	  25.290	-239.040	  22.785
     31.6143	  34.000	  25.301	-237.051	  22.763
     31.6478	  34.000	  25.313	-237.063	  22.740
     31.6812	  37.000	  25.328	-234.078	  22.717
     31.7146	  36.000	  25.344	-235.094	  22.695
     31.7480	  33.000	  25.363	-238.113	  22.672
     31.7814	  38.000	  25.383	-233.133	  22.650
     31.8149	  34.000	  25.407	-237.157	  22.627
     31.8483	  28.000	  25.433	-243.183	  22.605
     31.8817	  28.000	  25.462	-243.212	  22.582
     31.9151	  39.000	  25.494	-232.244	  22.560
     31.9486	  40.000	  25.530	-231.280	  22.537
     31.9820	  39.000	  25.570	-232.320	  22.515
     32.0154	  54.000	  25.613	-217.363	  22.492
     32.0488	  66.000	  25.661	-205.411	  22.470
     32.0822	  74.000	  25.714	-197.464	  22.448
     32.1157	  65.000	  25.772	-206.522	  22.425
     32.1491	  67.000	  25.836	-204.586	  22.403
     32.1825	  42.000	  25.907	-229.657	  22.380
     32.2159	  39.000	  25.984	-232.734	  22.358
     32.2494	  31.000	  26.069	-240.819	  22.336
     32.2828	  50.000	  26.163	-221.913	  22.313
     32.3162	  38.000	  26.266	-234.016	  22.291
     32.3496	  43.000	  26.380	-229.130	  22.269
     32.3830	  34.000	  26.505	-238.255	  22.246
     32.4165	  31.000	  26.644	-241.394	  22.224
     32.4499	  40.000	  26.798	-232.548	  22.202
     32.4833	  31.000	  26.968	-241.718	  22.180
     32.5167	  38.000	  27.157	-234.907	  22.157
     32.5502	  32.000	  27.367	-241.117	  22.135
     32.5836	  46.000	  27.602	-227.352	  22.113
     32.6170	  40.000	  27.864	-233.614	  22.091
     32.6504	  35.000	  28.158	-238.908	  22.069
     32.6839	  33.000	  28.490	-241.240	  22.047
     32.7173	  39.000	  28.864	-235.614	  22.024
     32.7507	  46.000	  29.288	-229.038	  22.002
     32.7841	  35.000	  29.771	-240.521	  21.980
     32.8175	  43.000	  30.324	-233.074	  21.958
     32.8510	  26.000	  30.960	-250.710	  21.936
     32.8844	  42.000	  31.695	-235.445	  21.914
     32.9178	  40.000	  32.552	-238.302	  21.892
     32.9512	  36.000	  33.794	-243.544	  21.870
     32.9847	  25.000	  34.988	-255.738	  21.848
     33.0181	  38.000	  36.411	-244.161	  21.826
     33.0515	  32.000	  38.244	-251.994	  21.804
     33.0849	  42.000	  40.336	-244.086	  21.782
     33.1183	  64.000	  42.919	-224.669	  21.760
     33.1518	  52.000	  46.157	-239.907	  21.738
     33.1852	  50.000	  50.286	-246.036	  21.716
     33.2186	  78.000	  55.665	-223.415	  21.694
     33.2520	  74.000	  62.882	-234.632	  21.672
     33.2855	 104.000	  73.060	-214.810	  21.650
     33.3189	  93.000	  88.844	-241.594	  21.628
     33.3523	 139.000	 116.755	-223.505	  21.606
     33.3857	 173.000	 170.646	-243.396	  21.584
