 Cr2O3   Chi2:  1.9362  CELL:    4.95821   4.95821  13.59570   90.0000   90.0000  120.0000   SPGR: R -3 c                 TEMP:      0.00
  1   2394     1.54060     1.54439     0.00000    -0.03104     0.00000    0
    86     0     1
       0.00000      20.00000
 2Theta	Yobs	Ycal	Yobs-Ycal	Backg	Posr	(hkl)	K
     20.0167	  35.000	  26.841	-229.624	  25.714
     20.0501	  34.000	  26.819	-230.601	  25.692
     20.0836	  37.000	  26.796	-227.579	  25.669
     20.1170	  33.000	  26.774	-231.556	  25.647
     20.1504	  36.000	  26.751	-228.534	  25.624
     20.1838	  28.000	  26.729	-236.511	  25.602
     20.2172	  27.000	  26.706	-237.489	  25.579
     20.2507	  35.000	  26.684	-229.466	  25.557
     20.2841	  33.000	  26.661	-231.444	  25.534
     20.3175	  32.000	  26.639	-232.421	  25.512
     20.3509	  39.000	  26.616	-225.399	  25.489
     20.3844	  32.000	  26.594	-232.376	  25.467
     20.4178	  37.000	  26.571	-227.354	  25.444
     20.4512	  43.000	  26.549	-221.331	  25.422
     20.4846	  38.000	  26.526	-226.309	  25.399
     20.5181	  22.000	  26.504	-242.286	  25.377
     20.5515	  35.000	  26.482	-229.264	  25.354
     20.5849	  37.000	  26.459	-227.242	  25.332
     20.6183	  28.000	  26.437	-236.219	  25.310
     20.6517	  31.000	  26.414	-233.197	  25.287
     20.6852	  31.000	  26.392	-233.175	  25.265
     20.7186	  23.000	  26.370	-241.152	  25.243
     20.7520	  33.000	  26.347	-231.130	  25.220
     20.7854	  35.000	  26.325	-229.108	  25.198
     20.8189	  33.000	  26.303	-231.085	  25.176
     20.8523	  34.000	  26.280	-230.063	  25.153
     20.8857	  22.000	  26.258	-242.041	  25.131
     20.9191	  34.000	  26.236	-230.018	  25.109
     20.9525	  33.000	  26.214	-230.996	  25.086
     20.9860	  33.000	  26.191	-230.974	  25.064
     21.0194	  28.000	  26.169	-235.952	  25.042
     21.0528	  34.000	  26.147	-229.929	  25.020
     21.0862	  33.000	  26.125	-230.907	  24.997
     21.1197	  28.000	  26.102	-235.885	  24.975
     21.1531	  39.000	  26.080	-224.863	  24.953
     21.1865	  19.000	  26.058	-244.841	  24.931
     21.2199	  17.000	  26.036	-246.818	  24.909
     21.2533	  25.000	  26.014	-238.796	  24.886
     21.2868	  24.000	  25.991	-239.774	  24.864
     21.3202	  19.000	  25.969	-244.752	  24.842
     21.3536	  42.000	  25.947	-221.730	  24.820
     21.3870	  16.000	  25.925	-247.708	  24.798
     21.4205	  33.000	  25.903	-230.685	  24.776
     21.4539	  21.000	  25.881	-242.663	  24.754
     21.4873	  21.000	  25.859	-242.641	  24.732
     21.5207	  24.000	  25.837	-239.619	  24.710
     21.5541	  25.000	  25.815	-238.597	  24.687
     21.5876	  23.000	  25.965	-240.747	  24.665
     21.6210	  18.000	  25.947	-245.729	  24.643
     21.6544	  31.000	  26.015	-232.797	  24.621
     21.6878	  26.000	  25.999	-237.782	  24.599
     21.7213	  27.000	  25.984	-236.766	  24.577
     21.7547	  34.000	  25.969	-229.751	  24.555
     21.7881	  45.000	  25.954	-218.736	  24.533
     21.8215	  21.000	  25.939	-242.722	  24.511
     21.8550	  21.000	  25.925	-242.707	  24.489
     21.8884	  26.000	  25.911	-237.693	  24.467
     21.9218	  27.000	  25.897	-236.680	  24.446
     21.9552	  29.000	  25.884	-234.666	  24.424
     21.9886	  34.000	  25.871	-229.653	  24.402
     22.0221	  29.000	  25.858	-234.641	  24.380
     22.0555	  36.000	  25.846	-227.629	  24.358
     22.0889	  25.000	  25.834	-238.617	  24.336
     22.1223	  37.000	  25.823	-226.606	  24.314
     22.1558	  34.000	  25.812	-229.595	  24.292
     22.1892	  31.000	  25.802	-232.584	  24.270
     22.2226	  36.000	  25.792	-227.575	  24.249
     22.2560	  25.000	  25.783	-238.565	  24.227
     22.2894	  35.000	  25.774	-228.557	  24.205
     22.3229	  38.000	  25.766	-225.548	  24.183
     22.3563	  25.000	  25.758	-238.541	  24.161
     22.3897	  23.000	  25.752	-240.534	  24.140
     22.4231	  34.000	  25.746	-229.528	  24.118
     22.4566	  24.000	  25.741	-239.523	  24.096
     22.4900	  25.000	  25.736	-238.519	  24.074
     22.5234	  33.000	  25.733	-230.515	  24.053
     22.5568	  26.000	  25.730	-237.513	  24.031
     22.5902	  21.000	  25.729	-242.511	  24.009
     22.6237	  32.000	  25.729	-231.511	  23.987
     22.6571	  26.000	  25.729	-237.512	  23.966
     22.6905	  37.000	  25.732	-226.514	  23.944
     22.7239	  32.000	  25.735	-231.518	  23.922
     22.7574	  29.000	  25.740	-234.523	  23.901
     22.7908	  42.000	  25.747	-221.529	  23.879
     22.8242	  23.000	  25.755	-240.538	  23.857
     22.8576	  28.000	  25.765	-235.548	  23.836
     22.8911	  29.000	  25.778	-234.560	  23.814
     22.9245	  35.000	  25.792	-228.575	  23.793
     22.9579	  28.000	  25.809	-235.591	  23.771
     22.9913	  27.000	  25.828	-236.611	  23.749
     23.0247	  25.000	  25.850	-238.633	  23.728
     23.0582	  39.000	  25.876	-224.658	  23.706
     23.0916	  25.000	  25.905	-238.687	  23.685
     23.1250	  37.000	  25.937	-226.720	  23.663
     23.1584	  33.000	  25.974	-230.756	  23.642
     23.1919	  18.000	  26.015	-245.797	  23.620
     23.2253	  32.000	  26.061	-231.844	  23.599
     23.2587	  29.000	  26.113	-234.895	  23.577
     23.2921	  31.000	  26.171	-232.953	  23.556
     23.3255	  42.000	  26.236	-222.018	  23.534
     23.3590	  34.000	  26.308	-230.091	  23.513
     23.3924	  35.000	  26.390	-229.172	  23.491
     23.4258	  66.000	  26.481	-198.263	  23.470
     23.4592	  60.000	  26.583	-204.366	  23.449
     23.4927	  38.000	  26.698	-226.480	  23.427
     23.5261	  39.000	  26.827	-225.609	  23.406
     23.5595	  37.000	  26.972	-227.755	  23.384
     23.5929	  33.000	  27.137	-231.920	  23.363
     23.6263	  28.000	  27.323	-237.106	  23.342
     23.6598	  40.000	  27.535	-225.318	  23.320
     23.6932	  31.000	  27.776	-234.559	  23.299
     23.7266	  33.000	  28.053	-232.835	  23.278
     23.7600	  38.000	  28.371	-228.153	  23.256
     23.7935	  33.000	  28.738	-233.521	  23.235
     23.8269	  26.000	  29.165	-240.948	  23.214
     23.8603	  38.000	  29.665	-229.447	  23.193
     23.8937	  33.000	  30.253	-235.035	  23.171
     23.9271	  34.000	  30.951	-234.733	  23.150
     23.9606	  32.000	  31.787	-237.570	  23.129
     23.9940	  40.000	  32.799	-230.582	  23.108
     24.0274	  39.000	  34.038	-232.821	  23.086
     24.0608	  36.000	  35.575	-237.358	  23.065
     24.0943	  40.000	  37.511	-235.293	  23.044
     24.1277	  44.000	  39.992	-233.775	  23.023
     24.1611	  47.000	  43.241	-234.024	  23.002
     24.1945	  48.000	  47.609	-237.392	  22.980
     24.2280	  69.000	  53.734	-222.516	  22.959
     24.2614	  70.000	  63.101	-230.884	  22.938
     24.2948	  98.000	  79.838	-219.621	  22.917
     24.3282	 131.000	 114.559	-221.342	  22.896
     24.3616	 189.000	 187.452	-236.235	  22.875
     24.3951	 322.000	 321.145	-236.928	  22.854
     24.4285	 497.000	 513.953	-254.736	  22.833
     24.4619	 692.000	 692.751	-238.534	  22.811
     24.4953	 776.000	 730.958	-192.741	  22.790
     24.5288	 603.000	 627.951	-262.734	  22.769
     24.5622	 392.000	 451.593	-297.375	  22.748
     24.5956	 224.000	 282.662	-296.445	  22.727
     24.6290	 180.000	 169.027	-226.810	  22.706
     24.6624	 107.000	 106.696	-237.479	  22.685
     24.6959	  95.000	  75.983	-218.766	  22.664
     24.7293	  55.000	  60.626	-243.409	  22.643
     24.7627	  69.000	  51.875	-220.657	  22.622
     24.7961	  32.000	  46.115	-251.898	  22.601
     24.8296	  42.000	  41.984	-237.766	  22.580
     24.8630	  33.000	  38.888	-243.670	  22.560
     24.8964	  28.000	  36.504	-246.286	  22.539
     24.9298	  45.000	  34.628	-227.411	  22.518
     24.9632	  45.000	  33.126	-225.908	  22.497
     24.9967	  49.000	  31.903	-220.686	  22.476
     25.0301	  28.000	  30.894	-240.677	  22.455
     25.0635	  32.000	  30.051	-235.834	  22.434
     25.0969	  28.000	  29.339	-239.122	  22.413
     25.1304	  29.000	  28.732	-237.514	  22.392
     25.1638	  32.000	  28.209	-233.991	  22.372
     25.1972	  24.000	  27.755	-241.537	  22.351
     25.2306	  14.000	  27.358	-251.141	  22.330
     25.2640	  22.000	  27.009	-242.791	  22.309
     25.2975	  28.000	  26.699	-236.482	  22.288
     25.3309	  27.000	  26.423	-237.206	  22.268
     25.3643	  39.000	  26.176	-224.958	  22.247
     25.3977	  22.000	  25.953	-241.735	  22.226
     25.4312	  33.000	  25.751	-230.534	  22.205
     25.4646	  23.000	  25.568	-240.350	  22.185
     25.4980	  23.000	  25.400	-240.183	  22.164
     25.5314	  26.000	  25.246	-237.029	  22.143
     25.5649	  36.000	  25.105	-226.887	  22.123
     25.5983	  21.000	  24.974	-241.757	  22.102
     25.6317	  27.000	  24.853	-235.635	  22.081
     25.6651	  19.000	  24.740	-243.523	  22.060
     25.6985	  36.000	  24.635	-226.417	  22.040
     25.7320	  29.000	  24.536	-233.319	  22.019
     25.7654	  29.000	  24.444	-233.226	  21.999
     25.7988	  26.000	  24.357	-236.139	  21.978
     25.8322	  21.000	  24.275	-241.057	  21.957
     25.8657	  23.000	  24.197	-238.979	  21.937
     25.8991	  23.000	  24.123	-238.906	  21.916
     25.9325	  26.000	  24.053	-235.836	  21.896
     25.9659	  22.000	  23.987	-239.769	  21.875
     25.9993	  29.000	  23.923	-232.705	  21.855
     26.0328	  27.000	  23.862	-234.645	  21.834
     26.0662	  16.000	  23.804	-245.586	  21.813
     26.0996	  34.000	  23.748	-227.530	  21.793
     26.1330	  15.000	  23.694	-246.477	  21.772
     26.1665	  28.000	  23.642	-233.425	  21.752
     26.1999	  22.000	  23.592	-239.375	  21.731
     26.2333	  21.000	  23.544	-240.326	  21.711
     26.2667	  27.000	  23.497	-234.280	  21.691
     26.3001	  11.000	  23.452	-250.234	  21.670
     26.3336	  19.000	  23.408	-242.190	  21.650
     26.3670	  33.000	  23.365	-228.148	  21.629
     26.4004	  32.000	  23.324	-229.106	  21.609
     26.4338	  21.000	  23.283	-240.066	  21.588
     26.4673	  23.000	  23.244	-238.026	  21.568
     26.5007	  12.000	  23.205	-248.988	  21.548
     26.5341	  32.000	  23.168	-228.950	  21.527
     26.5675	  28.000	  23.131	-232.914	  21.507
     26.6010	  33.000	  23.095	-227.878	  21.487
     26.6344	  26.000	  23.060	-234.842	  21.466
     26.6678	  15.000	  23.025	-245.808	  21.446
     26.7012	  17.000	  22.991	-243.774	  21.426
     26.7346	  22.000	  22.958	-238.741	  21.405
     26.7681	  21.000	  22.925	-239.708	  21.385
     26.8015	  24.000	  22.893	-236.676	  21.365
     26.8349	  22.000	  22.862	-238.644	  21.345
     26.8683	  33.000	  22.831	-227.613	  21.324
     26.9018	  27.000	  22.800	-233.582	  21.304
     26.9352	  17.000	  22.770	-243.552	  21.284
     26.9686	  23.000	  22.740	-237.522	  21.264
     27.0020	  29.000	  22.710	-231.493	  21.243
     27.0354	  15.000	  22.681	-245.464	  21.223
     27.0689	  24.000	  22.653	-236.435	  21.203
     27.1023	  18.000	  22.624	-242.407	  21.183
     27.1357	  23.000	  22.596	-237.379	  21.163
     27.1691	  28.000	  22.568	-232.351	  21.143
     27.2026	  31.000	  22.541	-229.324	  21.122
     27.2360	  17.000	  22.514	-243.296	  21.102
     27.2694	  16.000	  22.487	-244.269	  21.082
     27.3028	  25.000	  22.460	-235.243	  21.062
     27.3362	  19.000	  22.434	-241.216	  21.042
     27.3697	  24.000	  22.408	-236.190	  21.022
     27.4031	  16.000	  22.382	-244.164	  21.002
     27.4365	  28.000	  22.356	-232.138	  20.982
     27.4699	  14.000	  22.330	-246.113	  20.962
     27.5034	  21.000	  22.305	-239.088	  20.942
     27.5368	  36.000	  22.128	-223.910	  20.922
     27.5702	  26.000	  22.029	-233.811	  20.902
     27.6036	  22.000	  22.009	-237.791	  20.882
     27.6371	  15.000	  21.989	-244.771	  20.862
     27.6705	  21.000	  21.969	-238.751	  20.842
     27.7039	  21.000	  21.949	-238.731	  20.822
     27.7373	  23.000	  21.929	-236.711	  20.802
     27.7707	  26.000	  21.909	-233.692	  20.782
     27.8042	  29.000	  21.889	-230.672	  20.762
     27.8376	  18.000	  21.869	-241.652	  20.742
     27.8710	  21.000	  21.849	-238.632	  20.722
     27.9044	  16.000	  21.829	-243.612	  20.702
     27.9379	  19.000	  21.809	-240.592	  20.682
     27.9713	  19.000	  21.790	-240.572	  20.662
     28.0047	  29.000	  21.770	-230.552	  20.643
     28.0381	  23.000	  21.750	-236.532	  20.623
     28.0715	  16.000	  21.730	-243.513	  20.603
     28.1050	  34.000	  21.710	-225.493	  20.583
     28.1384	  16.000	  21.690	-243.473	  20.563
     28.1718	  19.000	  21.671	-240.453	  20.543
     28.2052	  26.000	  21.651	-233.433	  20.524
     28.2387	  17.000	  21.631	-242.414	  20.504
     28.2721	  21.000	  21.611	-238.394	  20.484
     28.3055	  25.000	  21.591	-234.374	  20.464
     28.3389	  31.000	  21.572	-228.354	  20.445
     28.3723	  26.000	  21.552	-233.335	  20.425
     28.4058	  25.000	  21.532	-234.315	  20.405
     28.4392	  22.000	  21.513	-237.295	  20.385
     28.4726	  28.000	  21.493	-231.275	  20.366
     28.5060	  19.000	  21.473	-240.256	  20.346
     28.5395	  22.000	  21.453	-237.236	  20.326
     28.5729	  21.000	  21.434	-238.216	  20.307
     28.6063	  27.000	  21.414	-232.197	  20.287
     28.6397	  18.000	  21.394	-241.177	  20.267
     28.6731	  19.000	  21.375	-240.157	  20.248
     28.7066	  25.000	  21.355	-234.138	  20.228
     28.7400	  11.000	  21.336	-248.118	  20.209
     28.7734	  16.000	  21.316	-243.099	  20.189
     28.8068	  18.000	  21.296	-241.079	  20.169
     28.8403	  24.000	  21.277	-235.059	  20.150
     28.8737	  26.000	  21.257	-233.040	  20.130
     28.9071	  28.000	  21.238	-231.020	  20.111
     28.9405	  26.000	  21.218	-233.001	  20.091
     28.9740	  19.000	  21.199	-239.981	  20.072
     29.0074	  22.000	  21.179	-236.962	  20.052
     29.0408	  19.000	  21.160	-239.942	  20.033
     29.0742	  18.000	  21.140	-240.923	  20.013
     29.1076	  25.000	  21.121	-233.903	  19.994
     29.1411	  19.000	  21.101	-239.884	  19.974
     29.1745	  16.000	  21.082	-242.864	  19.955
     29.2079	  31.000	  21.062	-227.845	  19.935
     29.2413	  24.000	  21.043	-234.825	  19.916
     29.2748	  23.000	  21.023	-235.806	  19.896
     29.3082	  26.000	  21.004	-232.787	  19.877
     29.3416	  25.000	  20.985	-233.767	  19.857
     29.3750	  21.000	  20.965	-237.748	  19.838
     29.4084	  32.000	  20.946	-226.728	  19.819
     29.4419	  25.000	  20.926	-233.709	  19.799
     29.4753	  23.000	  20.907	-235.690	  19.780
     29.5087	  24.000	  20.888	-234.670	  19.761
     29.5421	  19.000	  20.868	-239.651	  19.741
     29.5756	  22.000	  20.849	-236.632	  19.722
     29.6090	  24.000	  20.830	-234.612	  19.703
     29.6424	  25.000	  20.810	-233.593	  19.683
     29.6758	  16.000	  20.791	-242.574	  19.664
     29.7092	  31.000	  20.772	-227.554	  19.645
     29.7427	  29.000	  20.753	-229.535	  19.626
     29.7761	  26.000	  20.733	-232.516	  19.606
     29.8095	  23.000	  20.714	-235.497	  19.587
     29.8429	  29.000	  20.695	-229.477	  19.568
     29.8764	  32.000	  20.676	-226.458	  19.549
     29.9098	  26.000	  20.656	-232.439	  19.529
     29.9432	  31.000	  20.637	-227.420	  19.510
     29.9766	  31.000	  20.618	-227.401	  19.491
     30.0101	  37.000	  20.599	-221.381	  19.472
     30.0435	  27.000	  20.580	-231.362	  19.453
     30.0769	  33.000	  20.561	-225.343	  19.433
     30.1103	  36.000	  20.541	-222.324	  19.414
     30.1437	  36.000	  20.522	-222.305	  19.395
     30.1772	  36.000	  20.503	-222.286	  19.376
     30.2106	  37.000	  20.484	-221.267	  19.357
     30.2440	  40.000	  20.465	-218.248	  19.338
     30.2774	  49.000	  20.446	-209.228	  19.319
     30.3109	  44.000	  20.427	-214.209	  19.300
     30.3443	  40.000	  20.408	-218.190	  19.281
     30.3777	  47.000	  20.389	-211.171	  19.262
     30.4111	  40.000	  20.370	-218.152	  19.243
     30.4445	  29.000	  20.351	-229.133	  19.224
     30.4780	  28.000	  20.332	-230.114	  19.205
     30.5114	  36.000	  20.313	-222.095	  19.186
     30.5448	  32.000	  20.294	-226.076	  19.167
     30.5782	  31.000	  20.275	-227.057	  19.148
     30.6117	  32.000	  20.256	-226.038	  19.129
     30.6451	  33.000	  20.237	-225.019	  19.110
     30.6785	  38.000	  20.511	-220.293	  19.091
     30.7119	  32.000	  20.499	-226.281	  19.072
     30.7453	  28.000	  20.631	-230.414	  19.053
     30.7788	  24.000	  20.623	-234.406	  19.034
     30.8122	  29.000	  20.615	-229.398	  19.015
     30.8456	  31.000	  20.608	-227.390	  18.996
     30.8790	  29.000	  20.601	-229.384	  18.977
     30.9125	  33.000	  20.595	-225.377	  18.958
     30.9459	  28.000	  20.589	-230.371	  18.939
     30.9793	  25.000	  20.583	-233.366	  18.921
     31.0127	  26.000	  20.578	-232.361	  18.902
     31.0462	  31.000	  20.574	-227.356	  18.883
     31.0796	  24.000	  20.570	-234.353	  18.864
     31.1130	  23.000	  20.567	-235.350	  18.845
     31.1464	  26.000	  20.565	-232.347	  18.827
     31.1798	  23.000	  20.563	-235.345	  18.808
     31.2133	  32.000	  20.562	-226.344	  18.789
     31.2467	  31.000	  20.561	-227.344	  18.770
     31.2801	  35.000	  20.562	-223.344	  18.752
     31.3135	  32.000	  20.563	-226.346	  18.733
     31.3470	  26.000	  20.566	-232.348	  18.714
     31.3804	  12.000	  20.569	-246.351	  18.695
     31.4138	  28.000	  20.573	-230.356	  18.677
     31.4472	  19.000	  20.579	-239.361	  18.658
     31.4806	  22.000	  20.585	-236.368	  18.639
     31.5141	  24.000	  20.593	-234.375	  18.621
     31.5475	  14.000	  20.602	-244.385	  18.602
     31.5809	  28.000	  20.612	-230.395	  18.583
     31.6143	  18.000	  20.624	-240.407	  18.565
     31.6478	  23.000	  20.638	-235.421	  18.546
     31.6812	  17.000	  20.653	-241.436	  18.528
     31.7146	  19.000	  20.670	-239.453	  18.509
     31.7480	  23.000	  20.690	-235.472	  18.490
     31.7814	  19.000	  20.711	-239.493	  18.472
     31.8149	  23.000	  20.734	-235.517	  18.453
     31.8483	  24.000	  20.760	-234.543	  18.435
     31.8817	  27.000	  20.789	-231.571	  18.416
     31.9151	  26.000	  20.820	-232.602	  18.398
     31.9486	  17.000	  20.854	-241.637	  18.379
     31.9820	  34.000	  20.892	-224.675	  18.361
     32.0154	  37.000	  20.933	-221.716	  18.342
     32.0488	  43.000	  20.979	-215.761	  18.324
     32.0822	  44.000	  21.028	-214.811	  18.305
     32.1157	  55.000	  21.082	-203.865	  18.287
     32.1491	  71.000	  21.142	-187.924	  18.268
     32.1825	  57.000	  21.207	-201.989	  18.250
     32.2159	  53.000	  21.278	-206.060	  18.231
     32.2494	  40.000	  21.355	-219.138	  18.213
     32.2828	  31.000	  21.440	-228.223	  18.195
     32.3162	  25.000	  21.534	-234.316	  18.176
     32.3496	  35.000	  21.636	-224.419	  18.158
     32.3830	  28.000	  21.748	-231.531	  18.139
     32.4165	  24.000	  21.872	-235.655	  18.121
     32.4499	  34.000	  22.008	-225.791	  18.103
     32.4833	  26.000	  22.159	-233.941	  18.084
     32.5167	  32.000	  22.325	-228.107	  18.066
     32.5502	  29.000	  22.509	-231.291	  18.048
     32.5836	  32.000	  22.713	-228.496	  18.029
     32.6170	  33.000	  22.940	-227.723	  18.011
     32.6504	  27.000	  23.194	-233.977	  17.993
     32.6839	  32.000	  23.478	-229.261	  17.975
     32.7173	  23.000	  23.797	-238.579	  17.956
     32.7507	  32.000	  24.156	-229.939	  17.938
     32.7841	  33.000	  24.563	-229.345	  17.920
     32.8175	  21.000	  25.025	-241.807	  17.902
     32.8510	  24.000	  25.552	-239.334	  17.884
     32.8844	  32.000	  26.157	-231.940	  17.865
     32.9178	  27.000	  26.856	-237.638	  17.847
     32.9512	  35.000	  27.667	-230.450	  17.829
     32.9847	  32.000	  28.617	-234.400	  17.811
     33.0181	  24.000	  29.737	-243.519	  17.793
     33.0515	  29.000	  31.069	-239.852	  17.775
     33.0849	  37.000	  32.670	-233.453	  17.756
     33.1183	  34.000	  34.616	-238.398	  17.738
     33.1518	  29.000	  37.011	-245.793	  17.720
     33.1852	  31.000	  40.001	-246.784	  17.702
     33.2186	  46.000	  43.799	-235.581	  17.684
     33.2520	  42.000	  48.993	-244.776	  17.666
     33.2855	  57.000	  55.540	-236.322	  17.648
     33.3189	  73.000	  64.605	-229.388	  17.630
     33.3523	  97.000	  78.329	-219.112	  17.612
     33.3857	 104.000	 101.555	-235.337	  17.594
