 TiO2   Chi2:  1.4531  CELL:    4.59423   4.59423   2.95897   90.0000   90.0000   90.0000   SPGR: P 42/m n m             TEMP:      0.00
  2   2394     1.54060     1.54439     0.00000    -0.00123     0.00000    0
    56    56     0     0     0
 2Theta	Yobs	Ycal	Yobs-Ycal	Backg	Posr	(hkl)	K
     20.0167	   56.00	   44.86	 -994.45	   43.37
     20.0501	   54.00	   44.79	 -996.39	   43.30
     20.0836	   43.00	   44.72	-1007.32	   43.24
     20.1170	   55.00	   44.66	 -995.25	   43.17
     20.1504	   52.00	   44.59	 -998.19	   43.11
     20.1838	   49.00	   44.53	-1001.12	   43.04
     20.2172	   54.00	   44.46	 -996.06	   42.98
     20.2507	   52.00	   44.40	 -997.99	   42.91
     20.2841	   46.00	   44.33	-1003.93	   42.85
     20.3175	   49.00	   44.27	-1000.86	   42.78
     20.3509	   45.00	   44.20	-1004.80	   42.72
     20.3844	   38.00	   44.14	-1011.73	   42.65
     20.4178	   47.00	   44.07	-1002.67	   42.59
     20.4512	   60.00	   44.01	 -989.60	   42.52
     20.4846	   49.00	   43.94	-1000.54	   42.46
     20.5181	   67.00	   43.88	 -982.47	   42.39
     20.5515	   61.00	   43.81	 -988.41	   42.33
     20.5849	   48.00	   43.75	-1001.34	   42.26
     20.6183	   53.00	   43.68	 -996.28	   42.20
     20.6517	   61.00	   43.62	 -988.22	   42.14
     20.6852	   52.00	   43.56	 -997.15	   42.07
     20.7186	   64.00	   43.49	 -985.09	   42.01
     20.7520	   57.00	   43.43	 -992.02	   41.94
     20.7854	   58.00	   43.36	 -990.96	   41.88
     20.8189	   48.00	   43.30	-1000.90	   41.81
     20.8523	   49.00	   43.24	 -999.83	   41.75
     20.8857	   46.00	   43.17	-1002.77	   41.69
     20.9191	   40.00	   43.11	-1008.70	   41.62
     20.9525	   57.00	   43.05	 -991.64	   41.56
     20.9860	   62.00	   42.98	 -986.58	   41.50
     21.0194	   54.00	   42.92	 -994.51	   41.43
     21.0528	   36.00	   42.86	-1012.45	   41.37
     21.0862	   46.00	   42.79	-1002.39	   41.31
     21.1197	   48.00	   42.73	-1000.32	   41.24
     21.1531	   49.00	   42.67	 -999.26	   41.18
     21.1865	   45.00	   42.60	-1003.20	   41.12
     21.2199	   55.00	   42.54	 -993.13	   41.05
     21.2533	   53.00	   42.48	 -995.07	   40.99
     21.2868	   34.00	   42.41	-1014.01	   40.93
     21.3202	   47.00	   42.35	-1000.95	   40.87
     21.3536	   45.00	   42.29	-1002.88	   40.80
     21.3870	   58.00	   42.23	 -989.82	   40.74
     21.4205	   43.00	   42.16	-1004.76	   40.68
     21.4539	   61.00	   42.10	 -986.70	   40.62
     21.4873	   51.00	   42.04	 -996.63	   40.55
     21.5207	   49.00	   41.98	 -998.57	   40.49
     21.5541	   48.00	   41.91	 -999.51	   40.43
     21.5876	   35.00	   41.85	-1012.45	   40.37
     21.6210	   47.00	   41.79	-1000.39	   40.30
     21.6544	   43.00	   41.73	-1004.32	   40.24
     21.6878	   58.00	   41.67	 -989.26	   40.18
     21.7213	   53.00	   41.60	 -994.20	   40.12
     21.7547	   41.00	   41.54	-1006.14	   40.06
     21.7881	   46.00	   41.48	-1001.08	   40.00
     21.8215	   51.00	   41.42	 -996.01	   39.93
     21.8550	   51.00	   41.36	 -995.95	   39.87
     21.8884	   57.00	   41.30	 -989.89	   39.81
     21.9218	   56.00	   41.24	 -990.83	   39.75
     21.9552	   47.00	   41.17	 -999.77	   39.69
     21.9886	   51.00	   41.11	 -995.71	   39.63
     22.0221	   48.00	   41.05	 -998.65	   39.57
     22.0555	   49.00	   40.99	 -997.59	   39.51
     22.0889	   52.00	   40.93	 -994.53	   39.44
     22.1223	   34.00	   40.87	-1012.46	   39.38
     22.1558	   32.00	   40.81	-1014.40	   39.32
     22.1892	   39.00	   40.75	-1007.34	   39.26
     22.2226	   33.00	   40.69	-1013.28	   39.20
     22.2560	   45.00	   40.63	-1001.22	   39.14
     22.2894	   35.00	   40.57	-1011.16	   39.08
     22.3229	   42.00	   40.51	-1004.10	   39.02
     22.3563	   46.00	   40.44	-1000.04	   38.96
     22.3897	   46.00	   40.38	 -999.98	   38.90
     22.4231	   46.00	   40.32	 -999.92	   38.84
     22.4566	   54.00	   40.26	 -991.86	   38.78
     22.4900	   52.00	   40.20	 -993.80	   38.72
     22.5234	   60.00	   40.14	 -985.74	   38.66
     22.5568	   41.00	   40.08	-1004.68	   38.60
     22.5902	   38.00	   40.02	-1007.62	   38.54
     22.6237	   27.00	   39.96	-1018.56	   38.48
     22.6571	   39.00	   39.91	-1006.50	   38.42
     22.6905	   36.00	   39.85	-1009.44	   38.36
     22.7239	   46.00	   39.79	 -999.38	   38.30
     22.7574	   30.00	   39.75	-1015.35	   38.24
     22.7908	   38.00	   39.70	-1007.29	   38.18
     22.8242	   46.00	   39.65	 -999.25	   38.12
     22.8576	   45.00	   39.59	-1000.19	   38.06
     22.8911	   48.00	   39.54	 -997.13	   38.00
     22.9245	   52.00	   39.48	 -993.07	   37.94
     22.9579	   37.00	   39.42	-1008.02	   37.89
     22.9913	   30.00	   39.36	-1014.96	   37.83
     23.0247	   49.00	   39.31	 -995.90	   37.77
     23.0582	   24.00	   39.25	-1020.84	   37.71
     23.0916	   33.00	   39.19	-1011.79	   37.65
     23.1250	   41.00	   39.13	-1003.73	   37.59
     23.1584	   47.00	   39.08	 -997.67	   37.53
     23.1919	   47.00	   39.02	 -997.62	   37.48
     23.2253	   36.00	   38.96	-1008.56	   37.42
     23.2587	   36.00	   38.91	-1008.50	   37.36
     23.2921	   48.00	   38.85	 -996.45	   37.30
     23.3255	   39.00	   38.80	-1005.39	   37.24
     23.3590	   58.00	   38.74	 -986.34	   37.18
     23.3924	   26.00	   38.69	-1018.28	   37.13
     23.4258	   41.00	   38.63	-1003.22	   37.07
     23.4592	   34.00	   38.57	-1010.17	   37.01
     23.4927	   32.00	   38.52	-1012.11	   36.95
     23.5261	   48.00	   38.47	 -996.06	   36.89
     23.5595	   43.00	   38.41	-1001.01	   36.84
     23.5929	   49.00	   38.36	 -994.95	   36.78
     23.6263	   38.00	   38.30	-1005.90	   36.72
     23.6598	   35.00	   38.25	-1008.84	   36.66
     23.6932	   39.00	   38.20	-1004.79	   36.61
     23.7266	   40.00	   38.14	-1003.74	   36.55
     23.7600	   49.00	   38.09	 -994.69	   36.49
     23.7935	   37.00	   38.04	-1006.63	   36.44
     23.8269	   47.00	   37.99	 -996.58	   36.38
     23.8603	   41.00	   37.93	-1002.53	   36.32
     23.8937	   40.00	   37.88	-1003.48	   36.26
     23.9271	   40.00	   37.83	-1003.43	   36.21
     23.9606	   37.00	   37.78	-1006.38	   36.15
     23.9940	   40.00	   37.73	-1003.33	   36.09
     24.0274	   39.00	   37.69	-1004.28	   36.04
     24.0608	   39.00	   37.64	-1004.23	   35.98
     24.0943	   41.00	   37.59	-1002.19	   35.92
     24.1277	   39.00	   37.54	-1004.14	   35.87
     24.1611	   37.00	   37.50	-1006.09	   35.81
     24.1945	   50.00	   37.46	 -993.05	   35.76
     24.2280	   33.00	   37.41	-1010.01	   35.70
     24.2614	   47.00	   37.37	 -995.97	   35.64
     24.2948	   41.00	   37.33	-1001.93	   35.59
     24.3282	   46.00	   37.29	 -996.89	   35.53
     24.3616	   40.00	   37.25	-1002.85	   35.48
     24.3951	   40.00	   37.22	-1002.82	   35.42
     24.4285	   37.00	   37.19	-1005.78	   35.36
     24.4619	   27.00	   37.16	-1015.75	   35.31
     24.4953	   46.00	   37.13	 -996.73	   35.25
     24.5288	   40.00	   37.11	-1002.71	   35.20
     24.5622	   32.00	   37.09	-1010.69	   35.14
     24.5956	   41.00	   37.08	-1001.68	   35.09
     24.6290	   57.00	   37.08	 -985.67	   35.03
     24.6624	   40.00	   37.08	-1002.67	   34.98
     24.6959	   31.00	   37.09	-1011.68	   34.92
     24.7293	   31.00	   37.11	-1011.71	   34.87
     24.7627	   36.00	   37.15	-1006.74	   34.81
     24.7961	   52.00	   37.20	 -990.80	   34.76
     24.8296	   37.00	   37.28	-1005.87	   34.70
     24.8630	   41.00	   38.46	-1003.06	   34.65
     24.8964	   40.00	   38.64	-1004.23	   34.59
     24.9298	   35.00	   39.40	-1009.99	   34.54
     24.9632	   40.00	   39.71	-1005.30	   34.48
     24.9967	   46.00	   40.12	 -999.72	   34.43
     25.0301	   48.00	   40.68	 -998.27	   34.37
     25.0635	   43.00	   41.46	-1004.05	   34.32
     25.0969	   53.00	   42.59	 -995.18	   34.27
     25.1304	   46.00	   44.32	-1003.91	   34.21
     25.1638	   48.00	   47.30	-1004.90	   34.16
     25.1972	   42.00	   53.57	-1017.16	   34.10
     25.2306	   63.00	   68.05	-1010.64	   34.05
     25.2640	  117.00	   96.98	 -985.57	   34.00
     25.2975	  123.00	  134.29	-1016.89	   33.94
     25.3309	  156.00	  143.25	 -992.84	   33.89
     25.3643	  116.00	  125.81	-1015.40	   33.83
     25.3977	   94.00	   97.87	-1009.46	   33.78
     25.4312	   70.00	   70.93	-1006.52	   33.73
     25.4646	   48.00	   55.45	-1013.04	   33.67
     25.4980	   42.00	   48.21	-1011.81	   33.62
     25.5314	   62.00	   44.85	 -988.45	   33.57
     25.5649	   43.00	   43.04	-1005.63	   33.51
     25.5983	   41.00	   41.91	-1006.51	   33.46
     25.6317	   42.00	   41.16	-1004.76	   33.41
     25.6651	   34.00	   40.65	-1012.25	   33.35
     25.6985	   35.00	   40.30	-1010.89	   33.30
     25.7320	   38.00	   40.05	-1007.65	   33.25
     25.7654	   43.00	   39.89	-1002.49	   33.20
     25.7988	   45.00	   39.79	-1000.38	   33.14
     25.8322	   60.00	   39.73	 -985.33	   33.09
     25.8657	   39.00	   39.72	-1006.32	   33.04
     25.8991	   37.00	   39.74	-1008.34	   32.98
     25.9325	   40.00	   39.79	-1005.39	   32.93
     25.9659	   36.00	   39.87	-1009.47	   32.88
     25.9993	   35.00	   39.97	-1010.57	   32.83
     26.0328	   40.00	   40.10	-1005.70	   32.78
     26.0662	   26.00	   40.26	-1019.85	   32.72
     26.0996	   40.00	   40.44	-1006.04	   32.67
     26.1330	   32.00	   40.65	-1014.24	   32.62
     26.1665	   47.00	   40.88	 -999.48	   32.57
     26.1999	   39.00	   41.15	-1007.74	   32.51
     26.2333	   30.00	   41.45	-1017.04	   32.46
     26.2667	   49.00	   41.78	 -998.38	   32.41
     26.3001	   39.00	   42.15	-1008.75	   32.36
     26.3336	   38.00	   42.57	-1010.16	   32.31
     26.3670	   42.00	   43.03	-1006.62	   32.26
     26.4004	   32.00	   43.54	-1017.14	   32.20
     26.4338	   53.00	   44.11	 -996.71	   32.15
     26.4673	   61.00	   44.75	 -989.35	   32.10
     26.5007	   62.00	   45.47	 -989.07	   32.05
     26.5341	   71.00	   46.28	 -980.87	   32.00
     26.5675	   60.00	   47.18	 -992.78	   31.95
     26.6010	   60.00	   48.21	 -993.80	   31.90
     26.6344	   70.00	   49.36	 -984.96	   31.85
     26.6678	   64.00	   50.68	 -992.28	   31.80
     26.7012	   75.00	   52.19	 -982.78	   31.74
     26.7346	   73.00	   53.91	 -986.51	   31.69
     26.7681	   60.00	   55.91	-1001.50	   31.64
     26.8015	   68.00	   58.23	 -995.82	   31.59
     26.8349	   62.00	   60.94	-1004.54	   31.54
     26.8683	   56.00	   64.14	-1013.74	   31.49
     26.9018	   60.00	   67.95	-1013.54	   31.44
     26.9352	   71.00	   72.52	-1007.12	   31.39
     26.9686	   80.00	   78.08	-1003.68	   31.34
     27.0020	   84.00	   84.93	-1006.52	   31.29
     27.0354	   98.00	   93.48	-1001.07	   31.24
     27.0689	  112.00	  104.35	 -997.94	   31.19
     27.1023	  114.00	  118.45	-1010.04	   31.14
     27.1357	  125.00	  137.18	-1017.77	   31.09
     27.1691	  184.00	  162.78	 -984.38	   31.04
     27.2026	  200.00	  199.04	-1004.63	   30.99
     27.2360	  268.00	  252.90	 -990.49	   30.94
     27.2694	  316.00	  340.15	-1029.74	   30.89
     27.3028	  469.00	  507.58	-1044.18	   30.84
     27.3362	  911.00	  887.00	 -981.60	   30.79
     27.3697	 1750.00	 1712.61	 -968.21	   30.74
     27.4031	 3095.00	 3065.04	 -975.63	   30.69
     27.4365	 3946.00	 4022.38	-1081.98	   30.64
     27.4699	 3735.00	 3651.32	 -921.91	   30.59
     27.5034	 2920.00	 2888.01	 -973.61	   30.54
     27.5368	 1769.00	 1826.87	-1063.47	   30.50
     27.5702	 1057.00	 1000.48	 -949.08	   30.45
     27.6036	  557.00	  563.55	-1012.14	   30.40
     27.6371	  366.00	  361.28	-1000.88	   30.35
     27.6705	  251.00	  261.66	-1016.25	   30.30
     27.7039	  180.00	  203.54	-1029.14	   30.25
     27.7373	  143.00	  165.29	-1027.88	   30.20
     27.7707	  149.00	  138.51	 -995.10	   30.15
     27.8042	  111.00	  119.01	-1013.61	   30.11
     27.8376	   95.00	  104.38	-1014.97	   30.06
     27.8710	   91.00	   93.11	-1007.71	   30.01
     27.9044	   92.00	   84.25	 -997.85	   29.96
     27.9379	   87.00	   77.16	 -995.75	   29.91
     27.9713	   84.00	   71.36	 -992.95	   29.86
     28.0047	   78.00	   66.58	 -994.18	   29.82
     28.0381	   67.00	   62.61	-1001.20	   29.77
     28.0715	   47.00	   59.25	-1017.85	   29.72
     28.1050	   57.00	   56.40	-1004.99	   29.67
     28.1384	   58.00	   53.94	-1001.54	   29.62
     28.1718	   51.00	   51.82	-1006.41	   29.58
     28.2052	   56.00	   49.96	 -999.56	   29.53
     28.2387	   62.00	   48.33	 -991.93	   29.48
     28.2721	   45.00	   46.89	-1007.49	   29.43
     28.3055	   43.00	   45.62	-1008.21	   29.38
     28.3389	   56.00	   44.48	 -994.07	   29.34
     28.3723	   47.00	   43.45	-1002.05	   29.29
     28.4058	   50.00	   42.53	 -998.12	   29.24
     28.4392	   51.00	   41.69	 -996.29	   29.20
     28.4726	   48.00	   40.94	 -998.53	   29.15
     28.5060	   47.00	   40.24	 -998.84	   29.10
     28.5395	   43.00	   39.61	-1002.21	   29.05
     28.5729	   35.00	   39.03	-1009.63	   29.01
     28.6063	   42.00	   38.49	-1002.09	   28.96
     28.6397	   55.00	   38.00	 -988.60	   28.91
     28.6731	   50.00	   37.54	 -993.14	   28.87
     28.7066	   41.00	   37.12	-1001.71	   28.82
     28.7400	   53.00	   36.72	 -989.32	   28.77
     28.7734	   34.00	   36.35	-1007.95	   28.73
     28.8068	   31.00	   36.00	-1010.60	   28.68
     28.8403	   42.00	   35.68	 -999.27	   28.63
     28.8737	   39.00	   35.37	-1001.97	   28.59
     28.9071	   33.00	   35.09	-1007.68	   28.54
     28.9405	   32.00	   34.82	-1008.41	   28.49
     28.9740	   49.00	   34.56	 -991.15	   28.45
     29.0074	   34.00	   34.32	-1005.91	   28.40
     29.0408	   42.00	   34.08	 -997.68	   28.36
     29.0742	   35.00	   33.87	-1004.46	   28.31
     29.1076	   30.00	   33.66	-1009.25	   28.26
     29.1411	   33.00	   33.46	-1006.05	   28.22
     29.1745	   30.00	   33.27	-1008.86	   28.17
     29.2079	   28.00	   33.09	-1010.68	   28.13
     29.2413	   30.00	   32.91	-1008.51	   28.08
     29.2748	   27.00	   32.74	-1011.34	   28.03
     29.3082	   36.00	   32.58	-1002.18	   27.99
     29.3416	   33.00	   32.43	-1005.02	   27.94
     29.3750	   34.00	   32.28	-1003.87	   27.90
     29.4084	   32.00	   32.14	-1005.73	   27.85
     29.4419	   21.00	   32.00	-1016.59	   27.81
     29.4753	   38.00	   31.86	 -999.46	   27.76
     29.5087	   30.00	   31.73	-1007.33	   27.72
     29.5421	   34.00	   31.61	-1003.20	   27.67
     29.5756	   31.00	   31.49	-1006.08	   27.63
     29.6090	   31.00	   31.37	-1005.96	   27.58
     29.6424	   34.00	   31.25	-1002.85	   27.54
     29.6758	   32.00	   31.14	-1004.74	   27.49
     29.7092	   34.00	   31.03	-1002.63	   27.45
     29.7427	   21.00	   30.93	-1015.52	   27.40
     29.7761	   36.00	   30.83	-1000.42	   27.36
     29.8095	   19.00	   30.73	-1017.32	   27.31
     29.8429	   26.00	   30.63	-1010.22	   27.27
     29.8764	   39.00	   30.53	 -997.13	   27.23
     29.9098	   41.00	   30.44	 -995.03	   27.18
     29.9432	   30.00	   30.35	-1005.94	   27.14
     29.9766	   40.00	   30.26	 -995.85	   27.09
     30.0101	   21.00	   30.17	-1014.76	   27.05
     30.0435	   24.00	   30.08	-1011.68	   27.00
     30.0769	   31.00	   30.00	-1004.59	   26.96
     30.1103	   38.00	   28.92	 -996.52	   26.92
     30.1437	   27.00	   28.87	-1007.46	   26.87
     30.1772	   31.00	   28.31	-1002.91	   26.83
     30.2106	   25.00	   28.27	-1008.87	   26.78
     30.2440	   37.00	   28.23	 -996.82	   26.74
     30.2774	   37.00	   28.18	 -996.78	   26.70
     30.3109	   28.00	   28.14	-1005.73	   26.65
     30.3443	   21.00	   28.10	-1012.69	   26.61
     30.3777	   31.00	   28.05	-1002.65	   26.57
     30.4111	   21.00	   28.01	-1012.60	   26.52
     30.4445	   28.00	   27.97	-1005.56	   26.48
     30.4780	   36.00	   27.92	 -997.52	   26.44
     30.5114	   20.00	   27.88	-1013.47	   26.39
     30.5448	   31.00	   27.84	-1002.43	   26.35
     30.5782	   25.00	   27.79	-1008.39	   26.31
     30.6117	   40.00	   27.75	 -993.34	   26.26
     30.6451	   22.00	   27.71	-1011.30	   26.22
     30.6785	   26.00	   27.66	-1007.26	   26.18
     30.7119	   25.00	   27.62	-1008.22	   26.14
     30.7453	   20.00	   27.58	-1013.17	   26.09
     30.7788	   32.00	   27.54	-1001.13	   26.05
     30.8122	   38.00	   27.49	 -995.09	   26.01
     30.8456	   20.00	   27.45	-1013.05	   25.96
     30.8790	   31.00	   27.41	-1002.00	   25.92
     30.9125	   30.00	   27.37	-1002.96	   25.88
     30.9459	   34.00	   27.32	 -998.92	   25.84
     30.9793	   25.00	   27.28	-1007.88	   25.80
     31.0127	   21.00	   27.24	-1011.83	   25.75
     31.0462	   17.00	   27.20	-1015.79	   25.71
     31.0796	   19.00	   27.15	-1013.75	   25.67
     31.1130	   18.00	   27.11	-1014.71	   25.63
     31.1464	   23.00	   27.07	-1009.67	   25.58
     31.1798	   23.00	   27.03	-1009.62	   25.54
     31.2133	   21.00	   26.99	-1011.58	   25.50
     31.2467	   25.00	   26.94	-1007.54	   25.46
     31.2801	   24.00	   26.90	-1008.50	   25.42
     31.3135	   30.00	   26.86	-1002.46	   25.38
     31.3470	   22.00	   26.82	-1010.42	   25.33
     31.3804	   16.00	   26.78	-1016.37	   25.29
     31.4138	   26.00	   26.74	-1006.33	   25.25
     31.4472	   35.00	   26.70	 -997.29	   25.21
     31.4806	   28.00	   26.65	-1004.25	   25.17
     31.5141	   24.00	   26.61	-1008.21	   25.13
     31.5475	   36.00	   26.57	 -996.17	   25.09
     31.5809	   30.00	   26.53	-1002.13	   25.04
     31.6143	   20.00	   26.49	-1012.08	   25.00
     31.6478	   30.00	   26.45	-1002.04	   24.96
     31.6812	   25.00	   26.41	-1007.00	   24.92
     31.7146	   31.00	   26.37	-1000.96	   24.88
     31.7480	   36.00	   26.33	 -995.92	   24.84
     31.7814	   26.00	   26.28	-1005.88	   24.80
     31.8149	   22.00	   26.24	-1009.84	   24.76
     31.8483	   28.00	   26.20	-1003.80	   24.72
     31.8817	   26.00	   26.16	-1005.76	   24.68
     31.9151	   19.00	   26.12	-1012.72	   24.64
     31.9486	   22.00	   26.08	-1009.68	   24.60
     31.9820	   40.00	   26.04	 -991.64	   24.56
     32.0154	   25.00	   26.00	-1006.60	   24.52
     32.0488	   22.00	   25.96	-1009.56	   24.48
     32.0822	   30.00	   25.92	-1001.52	   24.43
     32.1157	   16.00	   25.88	-1015.48	   24.39
     32.1491	   28.00	   25.84	-1003.44	   24.35
     32.1825	   24.00	   25.80	-1007.40	   24.31
     32.2159	   15.00	   25.76	-1016.36	   24.27
     32.2494	   17.00	   25.72	-1014.32	   24.23
     32.2828	   25.00	   25.68	-1006.28	   24.19
     32.3162	   39.00	   25.64	 -992.24	   24.16
     32.3496	   30.00	   25.60	-1001.20	   24.12
     32.3830	   20.00	   25.56	-1011.16	   24.08
     32.4165	   20.00	   25.52	-1011.12	   24.04
     32.4499	   25.00	   25.48	-1006.08	   24.00
     32.4833	   31.00	   25.44	-1000.04	   23.96
     32.5167	   31.00	   25.40	-1000.00	   23.92
     32.5502	   26.00	   25.36	-1004.96	   23.88
     32.5836	   22.00	   25.32	-1008.92	   23.84
     32.6170	   31.00	   25.29	 -999.88	   23.80
     32.6504	   21.00	   25.25	-1009.84	   23.76
     32.6839	   21.00	   25.21	-1009.80	   23.72
     32.7173	   25.00	   25.17	-1005.76	   23.68
     32.7507	   33.00	   25.13	 -997.72	   23.64
     32.7841	   24.00	   25.09	-1006.69	   23.60
     32.8175	   19.00	   25.05	-1011.65	   23.57
     32.8510	   23.00	   25.01	-1007.61	   23.53
     32.8844	   31.00	   24.97	 -999.57	   23.49
     32.9178	   20.00	   24.94	-1010.53	   23.45
     32.9512	   27.00	   24.90	-1003.49	   23.41
     32.9847	   24.00	   24.86	-1006.45	   23.37
     33.0181	   20.00	   24.82	-1010.41	   23.33
     33.0515	   19.00	   24.78	-1011.38	   23.30
     33.0849	   31.00	   24.74	 -999.34	   23.26
     33.1183	   33.00	   24.70	 -997.30	   23.22
     33.1518	   28.00	   24.67	-1002.26	   23.18
     33.1852	   23.00	   24.63	-1007.22	   23.14
     33.2186	   19.00	   24.59	-1011.18	   23.10
     33.2520	   22.00	   24.55	-1008.15	   23.07
     33.2855	   27.00	   24.51	-1003.11	   23.03
     33.3189	   27.00	   24.48	-1003.07	   22.99
     33.3523	   21.00	   24.44	-1009.03	   22.95
     33.3857	   28.00	   24.40	-1002.00	   22.91
     33.4192	   23.00	   24.36	-1006.96	   22.88
