 TiO2   Chi2:  2.2640  CELL:    4.59419   4.59419   2.95877   90.0000   90.0000   90.0000   SPGR: P 42/m n m             TEMP:      0.00
  2   2394     1.54060     1.54439     0.00000     0.10076     0.00000    0
    57    58     0     0     0
 2Theta	Yobs	Ycal	Yobs-Ycal	Backg	Posr	(hkl)	K
     20.0167	   60.00	   69.96	 -903.96	   63.86
     20.0501	   76.00	   69.92	 -887.92	   63.81
     20.0836	   62.00	   69.87	 -901.87	   63.76
     20.1170	   58.00	   69.82	 -905.82	   63.72
     20.1504	   70.00	   69.77	 -893.77	   63.67
     20.1838	   75.00	   69.73	 -888.73	   63.62
     20.2172	   61.00	   69.68	 -902.68	   63.58
     20.2507	   54.00	   69.63	 -909.63	   63.53
     20.2841	   68.00	   69.59	 -895.59	   63.48
     20.3175	   64.00	   69.54	 -899.54	   63.43
     20.3509	   85.00	   69.49	 -878.49	   63.39
     20.3844	   67.00	   69.45	 -896.45	   63.34
     20.4178	   80.00	   69.40	 -883.40	   63.29
     20.4512	   66.00	   69.35	 -897.35	   63.25
     20.4846	   52.00	   69.30	 -911.30	   63.20
     20.5181	   58.00	   69.26	 -905.26	   63.15
     20.5515	   64.00	   69.21	 -899.21	   63.11
     20.5849	   62.00	   69.16	 -901.16	   63.06
     20.6183	   67.00	   69.12	 -896.12	   63.01
     20.6517	   57.00	   69.07	 -906.07	   62.97
     20.6852	   67.00	   69.02	 -896.02	   62.92
     20.7186	   69.00	   68.98	 -893.98	   62.87
     20.7520	   60.00	   68.93	 -902.93	   62.83
     20.7854	   67.00	   68.88	 -895.88	   62.78
     20.8189	   62.00	   68.84	 -900.84	   62.73
     20.8523	   66.00	   68.79	 -896.79	   62.69
     20.8857	   66.00	   68.74	 -896.74	   62.64
     20.9191	   66.00	   68.70	 -896.70	   62.59
     20.9525	   63.00	   68.65	 -899.65	   62.55
     20.9860	   55.00	   68.60	 -907.60	   62.50
     21.0194	   63.00	   68.56	 -899.56	   62.45
     21.0528	   63.00	   68.51	 -899.51	   62.41
     21.0862	   56.00	   68.47	 -906.47	   62.36
     21.1197	   68.00	   68.42	 -894.42	   62.31
     21.1531	   66.00	   68.37	 -896.37	   62.27
     21.1865	   82.00	   68.33	 -880.33	   62.22
     21.2199	   79.00	   68.28	 -883.28	   62.18
     21.2533	   66.00	   68.23	 -896.23	   62.13
     21.2868	   47.00	   68.19	 -915.19	   62.08
     21.3202	   78.00	   68.14	 -884.14	   62.04
     21.3536	   77.00	   68.10	 -885.10	   61.99
     21.3870	   67.00	   68.05	 -895.05	   61.94
     21.4205	   78.00	   68.00	 -884.00	   61.90
     21.4539	   66.00	   67.96	 -895.96	   61.85
     21.4873	   77.00	   67.91	 -884.91	   61.81
     21.5207	   70.00	   67.87	 -891.87	   61.76
     21.5541	   63.00	   67.82	 -898.82	   61.71
     21.5876	   70.00	   67.77	 -891.77	   61.67
     21.6210	   76.00	   67.73	 -885.73	   61.62
     21.6544	   68.00	   67.68	 -893.68	   61.58
     21.6878	   66.00	   67.64	 -895.64	   61.53
     21.7213	   62.00	   67.59	 -899.59	   61.49
     21.7547	   60.00	   67.54	 -901.54	   61.44
     21.7881	   75.00	   67.50	 -886.50	   61.39
     21.8215	   79.00	   67.45	 -882.45	   61.35
     21.8550	   66.00	   67.41	 -895.41	   61.30
     21.8884	   52.00	   67.36	 -909.36	   61.26
     21.9218	   65.00	   67.32	 -896.32	   61.21
     21.9552	   68.00	   67.27	 -893.27	   61.17
     21.9886	   70.00	   67.23	 -891.22	   61.12
     22.0221	   73.00	   67.18	 -888.18	   61.07
     22.0555	   67.00	   67.13	 -894.13	   61.03
     22.0889	   53.00	   67.09	 -908.09	   60.98
     22.1223	   52.00	   67.04	 -909.04	   60.94
     22.1558	   54.00	   67.00	 -907.00	   60.89
     22.1892	   70.00	   66.95	 -890.95	   60.85
     22.2226	   57.00	   66.91	 -903.91	   60.80
     22.2560	   62.00	   66.86	 -898.86	   60.76
     22.2894	   58.00	   66.82	 -902.82	   60.71
     22.3229	   55.00	   66.77	 -905.77	   60.67
     22.3563	   53.00	   66.73	 -907.73	   60.62
     22.3897	   58.00	   66.71	 -902.71	   60.58
     22.4231	   68.00	   66.66	 -892.66	   60.53
     22.4566	   65.00	   66.63	 -895.63	   60.49
     22.4900	   63.00	   66.59	 -897.59	   60.44
     22.5234	   45.00	   66.55	 -915.55	   60.40
     22.5568	   60.00	   66.50	 -900.50	   60.35
     22.5902	   72.00	   66.46	 -888.46	   60.31
     22.6237	   48.00	   66.41	 -912.41	   60.26
     22.6571	   51.00	   66.37	 -909.37	   60.22
     22.6905	   62.00	   66.33	 -898.33	   60.17
     22.7239	   54.00	   66.28	 -906.28	   60.13
     22.7574	   46.00	   66.24	 -914.24	   60.08
     22.7908	   62.00	   66.20	 -898.20	   60.04
     22.8242	   62.00	   66.15	 -898.15	   59.99
     22.8576	   68.00	   66.11	 -892.11	   59.95
     22.8911	   70.00	   66.07	 -890.07	   59.90
     22.9245	   65.00	   66.02	 -895.02	   59.86
     22.9579	   51.00	   65.98	 -908.98	   59.81
     22.9913	   55.00	   65.94	 -904.94	   59.77
     23.0247	   54.00	   65.89	 -905.89	   59.72
     23.0582	   65.00	   65.85	 -894.85	   59.68
     23.0916	   69.00	   65.81	 -890.81	   59.63
     23.1250	   66.00	   65.77	 -893.77	   59.59
     23.1584	   65.00	   65.72	 -894.72	   59.54
     23.1919	   51.00	   65.68	 -908.68	   59.50
     23.2253	   50.00	   65.64	 -909.64	   59.46
     23.2587	   65.00	   65.60	 -894.60	   59.41
     23.2921	   48.00	   65.56	 -911.56	   59.37
     23.3255	   63.00	   65.51	 -896.51	   59.32
     23.3590	   52.00	   65.47	 -907.47	   59.28
     23.3924	   68.00	   65.43	 -891.43	   59.23
     23.4258	   68.00	   65.39	 -891.39	   59.19
     23.4592	   56.00	   65.35	 -903.35	   59.15
     23.4927	   61.00	   65.31	 -898.31	   59.10
     23.5261	   48.00	   65.27	 -911.27	   59.06
     23.5595	   45.00	   65.23	 -914.23	   59.01
     23.5929	   56.00	   65.19	 -903.19	   58.97
     23.6263	   62.00	   65.15	 -897.15	   58.92
     23.6598	   61.00	   65.11	 -898.11	   58.88
     23.6932	   64.00	   65.07	 -895.07	   58.84
     23.7266	   55.00	   65.03	 -904.03	   58.79
     23.7600	   53.00	   64.99	 -905.99	   58.75
     23.7935	   68.00	   64.95	 -890.95	   58.70
     23.8269	   68.00	   64.92	 -890.92	   58.66
     23.8603	   51.00	   64.88	 -907.88	   58.62
     23.8937	   50.00	   64.84	 -908.84	   58.57
     23.9271	   60.00	   64.80	 -898.80	   58.53
     23.9606	   50.00	   64.77	 -908.77	   58.49
     23.9940	   57.00	   64.73	 -901.73	   58.44
     24.0274	   55.00	   64.70	 -903.70	   58.40
     24.0608	   65.00	   64.66	 -893.66	   58.35
     24.0943	   72.00	   64.63	 -886.63	   58.31
     24.1277	   65.00	   64.60	 -893.60	   58.27
     24.1611	   62.00	   64.57	 -896.57	   58.22
     24.1945	   53.00	   64.54	 -905.54	   58.18
     24.2280	   58.00	   64.51	 -900.51	   58.14
     24.2614	   61.00	   64.48	 -897.48	   58.09
     24.2948	   61.00	   64.45	 -897.45	   58.05
     24.3282	   66.00	   64.43	 -892.43	   58.01
     24.3616	   64.00	   64.40	 -894.40	   57.96
     24.3951	   58.00	   64.38	 -900.38	   57.92
     24.4285	   66.00	   64.36	 -892.36	   57.88
     24.4619	   66.00	   64.35	 -892.35	   57.83
     24.4953	   58.00	   65.39	 -901.39	   57.79
     24.5288	   56.00	   65.40	 -903.40	   57.75
     24.5622	   68.00	   65.95	 -891.95	   57.70
     24.5956	   54.00	   65.98	 -905.98	   57.66
     24.6290	   62.00	   66.02	 -898.02	   57.62
     24.6624	   61.00	   66.07	 -899.07	   57.57
     24.6959	   72.00	   66.13	 -888.13	   57.53
     24.7293	   78.00	   66.20	 -882.20	   57.49
     24.7627	   70.00	   66.28	 -890.28	   57.44
     24.7961	   72.00	   66.38	 -888.38	   57.40
     24.8296	   57.00	   66.49	 -903.49	   57.36
     24.8630	   66.00	   66.63	 -894.63	   57.31
     24.8964	   52.00	   66.79	 -908.79	   57.27
     24.9298	   64.00	   66.99	 -896.99	   57.23
     24.9632	   66.00	   67.23	 -895.23	   57.19
     24.9967	   58.00	   67.52	 -903.52	   57.14
     25.0301	   71.00	   67.89	 -890.89	   57.10
     25.0635	   65.00	   68.37	 -897.37	   57.06
     25.0969	   57.00	   68.99	 -905.99	   57.01
     25.1304	   77.00	   69.81	 -886.81	   56.97
     25.1638	   68.00	   70.95	 -896.95	   56.93
     25.1972	   69.00	   72.61	 -897.61	   56.89
     25.2306	   66.00	   75.21	 -903.21	   56.84
     25.2640	   65.00	   79.76	 -908.76	   56.80
     25.2975	   72.00	   88.22	 -910.22	   56.76
     25.3309	   86.00	  103.41	 -911.41	   56.72
     25.3643	  156.00	  126.57	 -864.57	   56.67
     25.3977	  160.00	  148.44	 -882.44	   56.63
     25.4312	  186.00	  150.53	 -858.53	   56.59
     25.4646	  125.00	  137.33	 -906.33	   56.55
     25.4980	  121.00	  116.74	 -889.74	   56.50
     25.5314	   93.00	   97.74	 -898.74	   56.46
     25.5649	   78.00	   85.52	 -901.52	   56.42
     25.5983	   90.00	   78.70	 -882.70	   56.38
     25.6317	   78.00	   74.99	 -890.99	   56.33
     25.6651	   73.00	   72.86	 -893.86	   56.29
     25.6985	   90.00	   71.53	 -875.53	   56.25
     25.7320	   73.00	   70.65	 -891.65	   56.21
     25.7654	   60.00	   70.05	 -904.05	   56.17
     25.7988	   78.00	   69.64	 -885.64	   56.12
     25.8322	   60.00	   69.36	 -903.36	   56.08
     25.8657	   63.00	   69.19	 -900.19	   56.04
     25.8991	   66.00	   69.10	 -897.10	   56.00
     25.9325	   79.00	   69.06	 -884.06	   55.95
     25.9659	   85.00	   69.08	 -878.08	   55.91
     25.9993	   84.00	   69.15	 -879.15	   55.87
     26.0328	   81.00	   69.25	 -882.25	   55.83
     26.0662	   66.00	   69.39	 -897.39	   55.79
     26.0996	   93.00	   69.57	 -870.57	   55.74
     26.1330	   69.00	   69.78	 -894.78	   55.70
     26.1665	   70.00	   70.02	 -894.02	   55.66
     26.1999	   71.00	   70.30	 -893.30	   55.62
     26.2333	   72.00	   70.61	 -892.61	   55.58
     26.2667	   96.00	   70.96	 -868.96	   55.54
     26.3001	   73.00	   71.35	 -892.35	   55.49
     26.3336	   92.00	   71.79	 -873.79	   55.45
     26.3670	   92.00	   72.27	 -874.27	   55.41
     26.4004	   77.00	   72.81	 -889.81	   55.37
     26.4338	   80.00	   73.40	 -887.40	   55.33
     26.4673	   82.00	   74.06	 -886.06	   55.29
     26.5007	   87.00	   74.79	 -881.79	   55.24
     26.5341	   83.00	   75.60	 -886.60	   55.20
     26.5675	   94.00	   76.50	 -876.50	   55.16
     26.6010	  108.00	   77.51	 -863.51	   55.12
     26.6344	  116.00	   78.64	 -856.64	   55.08
     26.6678	   93.00	   79.90	 -880.90	   55.04
     26.7012	  111.00	   81.32	 -864.32	   55.00
     26.7346	   97.00	   82.93	 -879.93	   54.95
     26.7681	  104.00	   84.75	 -874.75	   54.91
     26.8015	  128.00	   86.83	 -852.83	   54.87
     26.8349	  120.00	   89.21	 -863.21	   54.83
     26.8683	  125.00	   91.95	 -860.95	   54.79
     26.9018	  122.00	   95.13	 -867.13	   54.75
     26.9352	  128.00	   98.84	 -864.84	   54.71
     26.9686	  141.00	  103.22	 -856.22	   54.67
     27.0020	  135.00	  108.41	 -867.41	   54.62
     27.0354	  149.00	  114.63	 -859.63	   54.58
     27.0689	  165.00	  122.18	 -851.18	   54.54
     27.1023	  205.00	  131.46	 -820.46	   54.50
     27.1357	  181.00	  143.01	 -856.01	   54.46
     27.1691	  221.00	  157.65	 -830.65	   54.42
     27.2026	  192.00	  176.56	 -878.56	   54.38
     27.2360	  219.00	  201.55	 -876.55	   54.34
     27.2694	  249.00	  235.50	 -880.50	   54.30
     27.3028	  290.00	  283.39	 -887.39	   54.26
     27.3362	  382.00	  355.08	 -867.08	   54.21
     27.3697	  493.00	  472.86	 -873.86	   54.17
     27.4031	  678.00	  685.70	 -901.70	   54.13
     27.4365	 1006.00	 1080.32	 -968.32	   54.09
     27.4699	 1725.00	 1755.34	 -924.34	   54.05
     27.5034	 2871.00	 2664.16	 -687.16	   54.01
     27.5368	 3576.00	 3246.11	 -564.11	   53.97
     27.5702	 3259.00	 3065.92	 -700.92	   53.93
     27.6036	 2592.00	 2514.71	 -816.71	   53.89
     27.6371	 1775.00	 1760.53	 -879.53	   53.85
     27.6705	 1094.00	 1117.22	 -917.22	   53.81
     27.7039	  687.00	  714.39	 -921.39	   53.77
     27.7373	  440.00	  488.28	 -942.28	   53.73
     27.7707	  320.00	  361.93	 -935.93	   53.69
     27.8042	  328.00	  286.32	 -852.32	   53.65
     27.8376	  275.00	  236.78	 -855.78	   53.61
     27.8710	  201.00	  202.00	 -895.00	   53.57
     27.9044	  209.00	  176.52	 -861.52	   53.53
     27.9379	  203.00	  157.27	 -848.27	   53.48
     27.9713	  166.00	  142.37	 -870.37	   53.44
     28.0047	  156.00	  130.62	 -868.62	   53.40
     28.0381	  151.00	  121.18	 -864.18	   53.36
     28.0715	  137.00	  113.49	 -870.49	   53.32
     28.1050	  128.00	  107.13	 -873.13	   53.28
     28.1384	  144.00	  101.82	 -851.82	   53.24
     28.1718	  139.00	   97.33	 -852.33	   53.20
     28.2052	  149.00	   93.51	 -838.51	   53.16
     28.2387	  130.00	   90.23	 -854.23	   53.12
     28.2721	  135.00	   87.35	 -846.35	   53.08
     28.3055	  135.00	   84.85	 -843.85	   53.04
     28.3389	  111.00	   82.68	 -865.68	   53.00
     28.3723	  117.00	   80.76	 -857.76	   52.96
     28.4058	  111.00	   79.05	 -862.05	   52.92
     28.4392	  121.00	   77.53	 -850.53	   52.88
     28.4726	  101.00	   76.17	 -869.17	   52.84
     28.5060	  108.00	   74.95	 -860.95	   52.80
     28.5395	  128.00	   73.84	 -839.84	   52.76
     28.5729	   92.00	   72.83	 -874.83	   52.72
     28.6063	   94.00	   71.92	 -871.92	   52.68
     28.6397	   84.00	   71.09	 -881.09	   52.64
     28.6731	   80.00	   70.32	 -884.32	   52.60
     28.7066	   87.00	   69.62	 -876.62	   52.57
     28.7400	   91.00	   68.97	 -871.97	   52.53
     28.7734	   99.00	   68.37	 -863.37	   52.49
     28.8068	   91.00	   67.82	 -870.82	   52.45
     28.8403	   79.00	   67.31	 -882.31	   52.41
     28.8737	  115.00	   66.83	 -845.83	   52.37
     28.9071	   76.00	   66.38	 -884.38	   52.33
     28.9405	   98.00	   65.96	 -861.96	   52.29
     28.9740	   72.00	   65.57	 -887.57	   52.25
     29.0074	   80.00	   65.20	 -879.20	   52.21
     29.0408	  106.00	   64.86	 -852.86	   52.17
     29.0742	   70.00	   64.53	 -888.53	   52.13
     29.1076	   73.00	   64.23	 -885.23	   52.09
     29.1411	   75.00	   63.94	 -882.94	   52.05
     29.1745	   87.00	   63.66	 -870.66	   52.01
     29.2079	   77.00	   63.40	 -880.40	   51.97
     29.2413	   71.00	   63.15	 -886.15	   51.93
     29.2748	   72.00	   62.92	 -884.92	   51.90
     29.3082	   81.00	   62.69	 -875.69	   51.86
     29.3416	   77.00	   62.48	 -879.48	   51.82
     29.3750	   81.00	   62.27	 -875.27	   51.78
     29.4084	   72.00	   62.08	 -884.08	   51.74
     29.4419	   70.00	   61.89	 -885.89	   51.70
     29.4753	   87.00	   61.71	 -868.71	   51.66
     29.5087	   78.00	   61.54	 -877.54	   51.62
     29.5421	   86.00	   61.37	 -869.37	   51.58
     29.5756	   77.00	   61.21	 -878.21	   51.54
     29.6090	   60.00	   61.06	 -895.06	   51.51
     29.6424	   88.00	   60.91	 -866.91	   51.47
     29.6758	   70.00	   60.77	 -884.77	   51.43
     29.7092	   94.00	   60.63	 -860.63	   51.39
     29.7427	   71.00	   60.49	 -883.49	   51.35
     29.7761	   64.00	   60.37	 -890.37	   51.31
     29.8095	   76.00	   60.24	 -878.24	   51.27
     29.8429	   86.00	   60.12	 -868.12	   51.23
     29.8764	   78.00	   60.00	 -876.00	   51.19
     29.9098	   95.00	   59.89	 -858.89	   51.16
     29.9432	   75.00	   59.77	 -878.77	   51.12
     29.9766	  107.00	   59.67	 -846.67	   51.08
     30.0101	   83.00	   59.56	 -870.56	   51.04
     30.0435	   97.00	   59.46	 -856.46	   51.00
     30.0769	   80.00	   59.36	 -873.36	   50.96
     30.1103	   94.00	   59.26	 -859.26	   50.92
     30.1437	   96.00	   59.16	 -857.16	   50.89
     30.1772	  108.00	   59.07	 -845.07	   50.85
     30.2106	  111.00	   58.98	 -841.98	   50.81
     30.2440	  114.00	   58.89	 -838.89	   50.77
     30.2774	   92.00	   58.80	 -860.80	   50.73
     30.3109	  124.00	   58.72	 -828.72	   50.69
     30.3443	  116.00	   58.63	 -836.63	   50.66
     30.3777	  110.00	   57.35	 -841.35	   50.62
     30.4111	  109.00	   57.30	 -842.30	   50.58
     30.4445	  109.00	   56.65	 -841.65	   50.54
     30.4780	   95.00	   56.61	 -855.61	   50.50
     30.5114	  102.00	   56.57	 -848.57	   50.47
     30.5448	   97.00	   56.53	 -853.53	   50.43
     30.5782	   84.00	   56.49	 -866.49	   50.39
     30.6117	   75.00	   56.46	 -875.46	   50.35
     30.6451	   87.00	   56.42	 -863.42	   50.31
     30.6785	   80.00	   56.38	 -870.38	   50.28
     30.7119	   90.00	   56.34	 -860.34	   50.24
     30.7453	   70.00	   56.30	 -880.30	   50.20
     30.7788	   87.00	   56.27	 -863.27	   50.16
     30.8122	   71.00	   56.23	 -879.23	   50.12
     30.8456	   77.00	   56.19	 -873.19	   50.09
     30.8790	   76.00	   56.15	 -874.15	   50.05
     30.9125	   70.00	   56.11	 -880.11	   50.01
     30.9459	   65.00	   56.08	 -885.08	   49.97
     30.9793	   79.00	   56.04	 -871.04	   49.93
     31.0127	   70.00	   56.00	 -880.00	   49.90
     31.0462	   64.00	   55.96	 -885.96	   49.86
     31.0796	   69.00	   55.93	 -880.93	   49.82
     31.1130	   68.00	   55.89	 -881.89	   49.78
     31.1464	   64.00	   55.85	 -885.85	   49.75
     31.1798	   85.00	   55.81	 -864.81	   49.71
     31.2133	   82.00	   55.78	 -867.78	   49.67
     31.2467	   67.00	   55.74	 -882.74	   49.63
     31.2801	   67.00	   55.70	 -882.70	   49.60
     31.3135	  105.00	   55.66	 -844.66	   49.56
     31.3470	   64.00	   55.63	 -885.63	   49.52
     31.3804	   63.00	   55.59	 -886.59	   49.48
     31.4138	   79.00	   55.55	 -870.55	   49.45
     31.4472	   62.00	   55.51	 -887.51	   49.41
     31.4806	   64.00	   55.48	 -885.48	   49.37
     31.5141	   63.00	   55.44	 -886.44	   49.33
     31.5475	   57.00	   55.40	 -892.40	   49.30
     31.5809	   78.00	   55.36	 -871.36	   49.26
     31.6143	   52.00	   55.33	 -897.33	   49.22
     31.6478	   62.00	   55.29	 -887.29	   49.19
     31.6812	   61.00	   55.25	 -888.25	   49.15
     31.7146	   52.00	   55.22	 -897.22	   49.11
     31.7480	   75.00	   55.18	 -874.18	   49.07
     31.7814	   71.00	   55.14	 -878.14	   49.04
     31.8149	   54.00	   55.10	 -895.10	   49.00
     31.8483	   64.00	   55.07	 -885.07	   48.96
     31.8817	   60.00	   55.03	 -889.03	   48.93
     31.9151	   65.00	   54.99	 -883.99	   48.89
     31.9486	   43.00	   54.96	 -905.96	   48.85
     31.9820	   64.00	   54.92	 -884.92	   48.81
     32.0154	   68.00	   54.88	 -880.88	   48.78
     32.0488	   57.00	   54.85	 -891.85	   48.74
     32.0822	   40.00	   54.81	 -908.81	   48.70
     32.1157	   46.00	   54.77	 -902.77	   48.67
     32.1491	   51.00	   54.74	 -897.74	   48.63
     32.1825	   53.00	   54.70	 -895.70	   48.59
     32.2159	   67.00	   54.66	 -881.66	   48.56
     32.2494	   67.00	   54.63	 -881.63	   48.52
     32.2828	   37.00	   54.59	 -911.59	   48.48
     32.3162	   45.00	   54.55	 -903.55	   48.45
     32.3496	   47.00	   54.52	 -901.52	   48.41
     32.3830	   53.00	   54.48	 -895.48	   48.37
     32.4165	   51.00	   54.44	 -897.44	   48.34
     32.4499	   58.00	   54.41	 -890.41	   48.30
     32.4833	   55.00	   54.37	 -893.37	   48.26
     32.5167	   66.00	   54.33	 -882.33	   48.23
     32.5502	   53.00	   54.30	 -895.30	   48.19
     32.5836	   66.00	   54.26	 -882.26	   48.15
     32.6170	   49.00	   54.22	 -899.22	   48.12
     32.6504	   53.00	   54.19	 -895.19	   48.08
     32.6839	   52.00	   54.15	 -896.15	   48.05
     32.7173	   53.00	   54.11	 -895.11	   48.01
     32.7507	   64.00	   54.08	 -884.08	   47.97
     32.7841	   60.00	   54.04	 -888.04	   47.94
     32.8175	   61.00	   54.01	 -887.01	   47.90
     32.8510	   54.00	   53.97	 -893.97	   47.86
     32.8844	   40.00	   53.93	 -907.93	   47.83
     32.9178	   69.00	   53.90	 -878.90	   47.79
     32.9512	   47.00	   53.86	 -900.86	   47.76
     32.9847	   48.00	   53.82	 -899.82	   47.72
     33.0181	   46.00	   53.79	 -901.79	   47.68
     33.0515	   68.00	   53.75	 -879.75	   47.65
     33.0849	   56.00	   54.19	 -892.19	   47.61
     33.1183	   48.00	   54.16	 -900.16	   47.58
     33.1518	   55.00	   54.14	 -893.14	   47.54
     33.1852	   50.00	   54.35	 -898.35	   47.50
     33.2186	   66.00	   54.33	 -882.33	   47.47
     33.2520	   48.00	   54.31	 -900.31	   47.43
     33.2855	   57.00	   54.29	 -891.29	   47.40
     33.3189	   49.00	   54.27	 -899.27	   47.36
     33.3523	   61.00	   54.25	 -887.25	   47.32
     33.3857	   57.00	   54.24	 -891.24	   47.29
     33.4192	   51.00	   54.22	 -897.22	   47.25
