 TiO2   Chi2:  1.5510  CELL:    4.59409   4.59409   2.95898   90.0000   90.0000   90.0000   SPGR: P 42/m n m             TEMP:      0.00
  2   2394     1.54060     1.54439     0.00000    -0.00007     0.00000    0
    56    57     0     0     0
 2Theta	Yobs	Ycal	Yobs-Ycal	Backg	Posr	(hkl)	K
     20.0167	   49.00	   47.31	 -950.15	   45.31
     20.0501	   47.00	   47.25	 -952.08	   45.24
     20.0836	   57.00	   47.19	 -942.02	   45.18
     20.1170	   50.00	   47.12	 -948.96	   45.12
     20.1504	   56.00	   47.06	 -942.90	   45.06
     20.1838	   57.00	   47.00	 -941.83	   44.99
     20.2172	   58.00	   46.94	 -940.77	   44.93
     20.2507	   61.00	   46.87	 -937.71	   44.87
     20.2841	   68.00	   46.81	 -930.65	   44.81
     20.3175	   48.00	   46.75	 -950.59	   44.75
     20.3509	   45.00	   46.69	 -953.52	   44.68
     20.3844	   57.00	   46.63	 -941.46	   44.62
     20.4178	   55.00	   46.56	 -943.40	   44.56
     20.4512	   46.00	   46.50	 -952.34	   44.50
     20.4846	   57.00	   46.44	 -941.28	   44.44
     20.5181	   47.00	   46.38	 -951.21	   44.37
     20.5515	   40.00	   46.32	 -958.15	   44.31
     20.5849	   51.00	   46.26	 -947.09	   44.25
     20.6183	   56.00	   46.19	 -942.03	   44.19
     20.6517	   52.00	   46.13	 -945.97	   44.13
     20.6852	   46.00	   46.07	 -951.91	   44.07
     20.7186	   58.00	   46.01	 -939.85	   44.01
     20.7520	   47.00	   45.95	 -950.79	   43.95
     20.7854	   53.00	   45.89	 -944.72	   43.88
     20.8189	   47.00	   45.83	 -950.66	   43.82
     20.8523	   50.00	   45.77	 -947.60	   43.76
     20.8857	   35.00	   45.70	 -962.54	   43.70
     20.9191	   48.00	   45.64	 -949.48	   43.64
     20.9525	   49.00	   45.58	 -948.42	   43.58
     20.9860	   39.00	   45.52	 -958.36	   43.52
     21.0194	   47.00	   45.46	 -950.30	   43.46
     21.0528	   62.00	   45.40	 -935.24	   43.40
     21.0862	   58.00	   45.34	 -939.18	   43.34
     21.1197	   50.00	   45.28	 -947.12	   43.28
     21.1531	   57.00	   45.22	 -940.06	   43.22
     21.1865	   56.00	   45.16	 -941.00	   43.16
     21.2199	   55.00	   45.10	 -941.94	   43.10
     21.2533	   54.00	   45.04	 -942.88	   43.04
     21.2868	   54.00	   44.98	 -942.82	   42.98
     21.3202	   53.00	   44.92	 -943.76	   42.92
     21.3536	   37.00	   44.86	 -959.70	   42.86
     21.3870	   42.00	   44.80	 -954.64	   42.80
     21.4205	   49.00	   44.74	 -947.58	   42.74
     21.4539	   69.00	   44.68	 -927.52	   42.68
     21.4873	   54.00	   44.62	 -942.46	   42.62
     21.5207	   60.00	   44.56	 -936.40	   42.56
     21.5541	   55.00	   44.50	 -941.34	   42.50
     21.5876	   39.00	   44.44	 -957.28	   42.44
     21.6210	   45.00	   44.38	 -951.22	   42.38
     21.6544	   48.00	   44.32	 -948.16	   42.32
     21.6878	   40.00	   44.26	 -956.10	   42.26
     21.7213	   42.00	   44.21	 -954.04	   42.20
     21.7547	   62.00	   44.15	 -933.98	   42.14
     21.7881	   48.00	   44.09	 -947.92	   42.08
     21.8215	   41.00	   44.03	 -954.87	   42.03
     21.8550	   37.00	   43.97	 -958.81	   41.97
     21.8884	   51.00	   43.91	 -944.75	   41.91
     21.9218	   33.00	   43.85	 -962.69	   41.85
     21.9552	   45.00	   43.79	 -950.63	   41.79
     21.9886	   56.00	   43.74	 -939.57	   41.73
     22.0221	   43.00	   43.68	 -952.51	   41.67
     22.0555	   49.00	   43.62	 -946.46	   41.62
     22.0889	   39.00	   43.56	 -956.40	   41.56
     22.1223	   31.00	   43.50	 -964.34	   41.50
     22.1558	   34.00	   43.44	 -961.28	   41.44
     22.1892	   33.00	   43.39	 -962.22	   41.38
     22.2226	   48.00	   43.33	 -947.16	   41.32
     22.2560	   47.00	   43.27	 -948.11	   41.27
     22.2894	   55.00	   43.21	 -940.05	   41.21
     22.3229	   46.00	   43.15	 -948.99	   41.15
     22.3563	   62.00	   43.10	 -932.93	   41.09
     22.3897	   50.00	   43.04	 -944.88	   41.04
     22.4231	   55.00	   42.98	 -939.82	   40.98
     22.4566	   39.00	   42.92	 -955.76	   40.92
     22.4900	   38.00	   42.87	 -956.70	   40.86
     22.5234	   46.00	   42.81	 -948.64	   40.81
     22.5568	   54.00	   42.78	 -940.62	   40.75
     22.5902	   39.00	   42.74	 -955.57	   40.69
     22.6237	   40.00	   42.68	 -954.52	   40.63
     22.6571	   42.00	   42.63	 -952.46	   40.58
     22.6905	   47.00	   42.57	 -947.41	   40.52
     22.7239	   49.00	   42.51	 -945.35	   40.46
     22.7574	   55.00	   42.46	 -939.29	   40.41
     22.7908	   47.00	   42.40	 -947.24	   40.35
     22.8242	   32.00	   42.35	 -962.18	   40.29
     22.8576	   48.00	   42.29	 -946.13	   40.23
     22.8911	   35.00	   42.24	 -959.07	   40.18
     22.9245	   28.00	   42.18	 -966.02	   40.12
     22.9579	   53.00	   42.13	 -940.96	   40.06
     22.9913	   52.00	   42.07	 -941.91	   40.01
     23.0247	   47.00	   42.02	 -946.85	   39.95
     23.0582	   49.00	   41.96	 -944.80	   39.90
     23.0916	   40.00	   41.91	 -953.75	   39.84
     23.1250	   40.00	   41.85	 -953.69	   39.78
     23.1584	   48.00	   41.80	 -945.64	   39.73
     23.1919	   38.00	   41.75	 -955.58	   39.67
     23.2253	   38.00	   41.69	 -955.53	   39.62
     23.2587	   57.00	   41.64	 -936.48	   39.56
     23.2921	   48.00	   41.59	 -945.42	   39.50
     23.3255	   45.00	   41.53	 -948.37	   39.45
     23.3590	   53.00	   41.48	 -940.32	   39.39
     23.3924	   39.00	   41.43	 -954.26	   39.34
     23.4258	   49.00	   41.38	 -944.21	   39.28
     23.4592	   60.00	   41.32	 -933.16	   39.23
     23.4927	   36.00	   41.27	 -957.11	   39.17
     23.5261	   53.00	   41.22	 -940.06	   39.11
     23.5595	   45.00	   41.17	 -948.00	   39.06
     23.5929	   49.00	   41.12	 -943.95	   39.00
     23.6263	   45.00	   41.07	 -947.90	   38.95
     23.6598	   49.00	   41.02	 -943.85	   38.89
     23.6932	   38.00	   40.97	 -954.80	   38.84
     23.7266	   45.00	   40.92	 -947.75	   38.78
     23.7600	   36.00	   40.87	 -956.70	   38.73
     23.7935	   38.00	   40.82	 -954.65	   38.67
     23.8269	   47.00	   40.77	 -945.61	   38.62
     23.8603	   39.00	   40.72	 -953.56	   38.56
     23.8937	   36.00	   40.67	 -956.51	   38.51
     23.9271	   41.00	   40.63	 -951.46	   38.46
     23.9606	   35.00	   40.58	 -957.42	   38.40
     23.9940	   49.00	   40.54	 -943.37	   38.35
     24.0274	   40.00	   40.49	 -952.33	   38.29
     24.0608	   53.00	   40.45	 -939.28	   38.24
     24.0943	   35.00	   40.40	 -957.24	   38.18
     24.1277	   52.00	   40.36	 -940.20	   38.13
     24.1611	   48.00	   40.32	 -944.16	   38.08
     24.1945	   48.00	   40.28	 -944.12	   38.02
     24.2280	   47.00	   40.24	 -945.08	   37.97
     24.2614	   37.00	   40.21	 -955.04	   37.91
     24.2948	   46.00	   40.17	 -946.01	   37.86
     24.3282	   48.00	   40.14	 -943.98	   37.81
     24.3616	   39.00	   40.11	 -952.95	   37.75
     24.3951	   34.00	   40.08	 -957.92	   37.70
     24.4285	   39.00	   40.06	 -952.89	   37.65
     24.4619	   45.00	   40.04	 -946.87	   37.59
     24.4953	   50.00	   40.02	 -941.86	   37.54
     24.5288	   32.00	   40.01	 -959.84	   37.49
     24.5622	   32.00	   40.00	 -959.84	   37.43
     24.5956	   52.00	   40.00	 -939.84	   37.38
     24.6290	   42.00	   40.01	 -949.84	   37.33
     24.6624	   35.00	   40.99	 -957.83	   37.27
     24.6959	   38.00	   41.04	 -954.88	   37.22
     24.7293	   35.00	   41.59	 -958.43	   37.17
     24.7627	   46.00	   41.69	 -947.53	   37.11
     24.7961	   46.00	   41.81	 -947.65	   37.06
     24.8296	   46.00	   41.96	 -947.80	   37.01
     24.8630	   42.00	   42.15	 -951.98	   36.96
     24.8964	   48.00	   42.39	 -946.22	   36.90
     24.9298	   42.00	   42.69	 -952.53	   36.85
     24.9632	   45.00	   43.08	 -949.92	   36.80
     24.9967	   43.00	   43.61	 -952.44	   36.75
     25.0301	   45.00	   44.32	 -951.15	   36.69
     25.0635	   48.00	   45.31	 -949.15	   36.64
     25.0969	   50.00	   46.76	 -948.60	   36.59
     25.1304	   47.00	   49.03	 -953.86	   36.54
     25.1638	   47.00	   53.08	 -957.92	   36.48
     25.1972	   58.00	   61.70	 -955.53	   36.43
     25.2306	   97.00	   80.49	 -935.33	   36.38
     25.2640	  106.00	  114.51	 -960.35	   36.33
     25.2975	  158.00	  150.85	 -944.69	   36.28
     25.3309	  160.00	  152.55	 -944.39	   36.23
     25.3643	  127.00	  131.90	 -956.74	   36.17
     25.3977	   86.00	  100.83	 -966.67	   36.12
     25.4312	   68.00	   74.12	 -957.96	   36.07
     25.4646	   56.00	   59.19	 -955.03	   36.02
     25.4980	   56.00	   52.06	 -947.89	   35.97
     25.5314	   47.00	   48.58	 -953.42	   35.92
     25.5649	   56.00	   46.64	 -942.48	   35.87
     25.5983	   43.00	   45.41	 -954.25	   35.81
     25.6317	   54.00	   44.59	 -942.42	   35.76
     25.6651	   41.00	   44.02	 -954.85	   35.71
     25.6985	   40.00	   43.62	 -955.45	   35.66
     25.7320	   46.00	   43.34	 -949.17	   35.61
     25.7654	   53.00	   43.15	 -941.98	   35.56
     25.7988	   57.00	   43.03	 -937.86	   35.51
     25.8322	   43.00	   42.96	 -951.79	   35.46
     25.8657	   41.00	   42.93	 -953.77	   35.41
     25.8991	   49.00	   42.95	 -945.78	   35.36
     25.9325	   45.00	   42.99	 -949.83	   35.31
     25.9659	   45.00	   43.07	 -949.91	   35.26
     25.9993	   45.00	   43.17	 -950.01	   35.20
     26.0328	   40.00	   43.31	 -955.14	   35.15
     26.0662	   56.00	   43.47	 -939.30	   35.10
     26.0996	   40.00	   43.65	 -955.49	   35.05
     26.1330	   48.00	   43.87	 -947.70	   35.00
     26.1665	   48.00	   44.11	 -947.95	   34.95
     26.1999	   62.00	   44.39	 -934.22	   34.90
     26.2333	   53.00	   44.70	 -943.53	   34.85
     26.2667	   45.00	   45.04	 -951.88	   34.80
     26.3001	   52.00	   45.43	 -945.26	   34.75
     26.3336	   48.00	   45.86	 -949.70	   34.70
     26.3670	   38.00	   46.34	 -960.17	   34.65
     26.4004	   60.00	   46.87	 -938.71	   34.60
     26.4338	   51.00	   47.47	 -948.31	   34.56
     26.4673	   61.00	   48.13	 -938.97	   34.51
     26.5007	   62.00	   48.88	 -938.72	   34.46
     26.5341	   73.00	   49.72	 -928.55	   34.41
     26.5675	   62.00	   50.66	 -940.49	   34.36
     26.6010	   84.00	   51.72	 -919.55	   34.31
     26.6344	   72.00	   52.92	 -932.75	   34.26
     26.6678	   75.00	   54.28	 -931.12	   34.21
     26.7012	   79.00	   55.84	 -928.68	   34.16
     26.7346	   60.00	   57.63	 -949.47	   34.11
     26.7681	   85.00	   59.69	 -926.53	   34.06
     26.8015	   84.00	   62.09	 -929.93	   34.01
     26.8349	   70.00	   64.89	 -946.73	   33.97
     26.8683	   77.00	   68.20	 -943.03	   33.92
     26.9018	   85.00	   72.12	 -938.96	   33.87
     26.9352	   87.00	   76.83	 -941.67	   33.82
     26.9686	  111.00	   82.56	 -923.39	   33.77
     27.0020	   99.00	   89.59	 -942.43	   33.72
     27.0354	   92.00	   98.37	 -958.21	   33.67
     27.0689	  123.00	  109.51	 -938.35	   33.63
     27.1023	  120.00	  123.94	 -955.77	   33.58
     27.1357	  142.00	  143.05	 -952.88	   33.53
     27.1691	  200.00	  169.10	 -920.94	   33.48
     27.2026	  203.00	  205.86	 -954.70	   33.43
     27.2360	  279.00	  260.27	 -933.11	   33.38
     27.2694	  343.00	  348.11	 -956.95	   33.34
     27.3028	  551.00	  514.30	 -915.14	   33.29
     27.3362	  850.00	  877.07	 -978.91	   33.24
     27.3697	 1517.00	 1637.07	-1071.91	   33.19
     27.4031	 2974.00	 2869.08	 -846.92	   33.15
     27.4365	 3696.00	 3807.35	-1063.18	   33.10
     27.4699	 3592.00	 3535.37	 -895.21	   33.05
     27.5034	 2775.00	 2838.36	-1015.19	   33.00
     27.5368	 1873.00	 1853.62	 -932.46	   32.96
     27.5702	  983.00	 1046.83	-1015.67	   32.91
     27.6036	  590.00	  600.49	 -962.32	   32.86
     27.6371	  364.00	  385.34	 -973.17	   32.81
     27.6705	  275.00	  278.05	 -954.88	   32.77
     27.7039	  199.00	  216.04	 -968.88	   32.72
     27.7373	  164.00	  175.50	 -963.34	   32.67
     27.7707	  124.00	  147.19	 -975.02	   32.62
     27.8042	  109.00	  126.59	 -969.43	   32.58
     27.8376	  125.00	  111.15	 -937.98	   32.53
     27.8710	  104.00	   99.27	 -947.10	   32.48
     27.9044	   85.00	   89.93	 -956.77	   32.44
     27.9379	  106.00	   82.46	 -928.29	   32.39
     27.9713	   86.00	   76.38	 -942.22	   32.34
     28.0047	   71.00	   71.37	 -952.21	   32.30
     28.0381	   82.00	   67.19	 -937.03	   32.25
     28.0715	   72.00	   63.67	 -943.51	   32.20
     28.1050	   72.00	   60.67	 -940.51	   32.16
     28.1384	   63.00	   58.06	 -946.90	   32.11
     28.1718	   71.00	   55.82	 -936.66	   32.07
     28.2052	   69.00	   53.88	 -936.71	   32.02
     28.2387	   51.00	   52.17	 -953.01	   31.97
     28.2721	   49.00	   50.66	 -953.50	   31.93
     28.3055	   61.00	   49.33	 -940.16	   31.88
     28.3389	   48.00	   48.13	 -951.97	   31.83
     28.3723	   56.00	   47.06	 -942.90	   31.79
     28.4058	   60.00	   46.10	 -937.94	   31.74
     28.4392	   62.00	   45.23	 -935.06	   31.70
     28.4726	   48.00	   44.44	 -948.27	   31.65
     28.5060	   60.00	   43.72	 -935.55	   31.61
     28.5395	   58.00	   43.06	 -936.89	   31.56
     28.5729	   49.00	   42.45	 -945.29	   31.51
     28.6063	   51.00	   41.89	 -942.73	   31.47
     28.6397	   43.00	   41.38	 -950.22	   31.42
     28.6731	   45.00	   40.90	 -947.74	   31.38
     28.7066	   43.00	   40.46	 -949.30	   31.33
     28.7400	   38.00	   40.05	 -953.89	   31.29
     28.7734	   42.00	   39.67	 -949.50	   31.24
     28.8068	   47.00	   39.31	 -944.14	   31.20
     28.8403	   30.00	   38.97	 -960.81	   31.15
     28.8737	   40.00	   38.65	 -950.49	   31.11
     28.9071	   49.00	   38.36	 -941.19	   31.06
     28.9405	   36.00	   38.08	 -953.91	   31.02
     28.9740	   27.00	   37.81	 -962.65	   30.97
     29.0074	   40.00	   37.56	 -949.40	   30.93
     29.0408	   41.00	   37.32	 -948.16	   30.88
     29.0742	   43.00	   37.10	 -945.93	   30.84
     29.1076	   41.00	   36.88	 -947.72	   30.79
     29.1411	   36.00	   36.68	 -952.51	   30.75
     29.1745	   33.00	   36.48	 -955.32	   30.71
     29.2079	   24.00	   36.29	 -964.13	   30.66
     29.2413	   38.00	   36.12	 -949.95	   30.62
     29.2748	   45.00	   35.94	 -942.78	   30.57
     29.3082	   41.00	   35.78	 -946.62	   30.53
     29.3416	   38.00	   35.62	 -949.46	   30.48
     29.3750	   24.00	   35.47	 -963.31	   30.44
     29.4084	   38.00	   35.32	 -949.16	   30.40
     29.4419	   45.00	   35.18	 -942.02	   30.35
     29.4753	   43.00	   35.04	 -943.88	   30.31
     29.5087	   41.00	   34.91	 -945.75	   30.26
     29.5421	   38.00	   34.78	 -948.62	   30.22
     29.5756	   22.00	   34.66	 -964.50	   30.18
     29.6090	   38.00	   34.54	 -948.38	   30.13
     29.6424	   36.00	   34.42	 -950.26	   30.09
     29.6758	   27.00	   34.31	 -959.15	   30.05
     29.7092	   34.00	   34.20	 -952.04	   30.00
     29.7427	   40.00	   34.09	 -945.93	   29.96
     29.7761	   33.00	   33.99	 -952.83	   29.92
     29.8095	   36.00	   33.89	 -949.72	   29.87
     29.8429	   35.00	   33.79	 -950.62	   29.83
     29.8764	   37.00	   33.69	 -948.53	   29.79
     29.9098	   38.00	   33.60	 -947.43	   29.74
     29.9432	   28.00	   33.50	 -957.34	   29.70
     29.9766	   28.00	   33.41	 -957.25	   29.66
     30.0101	   34.00	   33.33	 -951.16	   29.61
     30.0435	   39.00	   33.24	 -946.08	   29.57
     30.0769	   32.00	   33.15	 -952.99	   29.53
     30.1103	   42.00	   33.07	 -942.91	   29.49
     30.1437	   35.00	   32.99	 -949.83	   29.44
     30.1772	   27.00	   32.91	 -957.75	   29.40
     30.2106	   34.00	   32.83	 -950.67	   29.36
     30.2440	   41.00	   31.81	 -942.65	   29.32
     30.2774	   24.00	   31.76	 -959.59	   29.27
     30.3109	   24.00	   31.23	 -959.07	   29.23
     30.3443	   30.00	   31.19	 -953.03	   29.19
     30.3777	   34.00	   31.15	 -948.99	   29.15
     30.4111	   34.00	   31.11	 -948.94	   29.10
     30.4445	   34.00	   31.07	 -948.90	   29.06
     30.4780	   30.00	   31.02	 -952.86	   29.02
     30.5114	   27.00	   30.98	 -955.82	   28.98
     30.5448	   30.00	   30.94	 -952.78	   28.94
     30.5782	   22.00	   30.90	 -960.73	   28.89
     30.6117	   27.00	   30.86	 -955.69	   28.85
     30.6451	   23.00	   30.81	 -959.65	   28.81
     30.6785	   43.00	   30.77	 -939.61	   28.77
     30.7119	   37.00	   30.73	 -945.57	   28.73
     30.7453	   41.00	   30.69	 -941.53	   28.69
     30.7788	   26.00	   30.65	 -956.48	   28.64
     30.8122	   40.00	   30.61	 -942.44	   28.60
     30.8456	   37.00	   30.56	 -945.40	   28.56
     30.8790	   32.00	   30.52	 -950.36	   28.52
     30.9125	   30.00	   30.48	 -952.32	   28.48
     30.9459	   26.00	   30.44	 -956.28	   28.44
     30.9793	   34.00	   30.40	 -948.24	   28.40
     31.0127	   35.00	   30.36	 -947.19	   28.35
     31.0462	   35.00	   30.32	 -947.15	   28.31
     31.0796	   19.00	   30.28	 -963.11	   28.27
     31.1130	   42.00	   30.24	 -940.07	   28.23
     31.1464	   32.00	   30.19	 -950.03	   28.19
     31.1798	   22.00	   30.15	 -959.99	   28.15
     31.2133	   38.00	   30.11	 -943.95	   28.11
     31.2467	   32.00	   30.07	 -949.91	   28.07
     31.2801	   26.00	   30.03	 -955.87	   28.03
     31.3135	   39.00	   29.99	 -942.83	   27.99
     31.3470	   28.00	   29.95	 -953.79	   27.95
     31.3804	   28.00	   29.91	 -953.75	   27.91
     31.4138	   19.00	   29.87	 -962.71	   27.87
     31.4472	   30.00	   29.83	 -951.67	   27.83
     31.4806	   45.00	   29.79	 -936.63	   27.79
     31.5141	   18.00	   29.75	 -963.58	   27.74
     31.5475	   38.00	   29.71	 -943.54	   27.70
     31.5809	   45.00	   29.67	 -936.50	   27.66
     31.6143	   34.00	   29.63	 -947.46	   27.62
     31.6478	   19.00	   29.59	 -962.42	   27.58
     31.6812	   25.00	   29.55	 -956.38	   27.54
     31.7146	   42.00	   29.51	 -939.34	   27.50
     31.7480	   22.00	   29.47	 -959.30	   27.46
     31.7814	   28.00	   29.43	 -953.26	   27.43
     31.8149	   23.00	   29.39	 -958.23	   27.39
     31.8483	   26.00	   29.35	 -955.19	   27.35
     31.8817	   37.00	   29.31	 -944.15	   27.31
     31.9151	   25.00	   29.27	 -956.11	   27.27
     31.9486	   33.00	   29.23	 -948.07	   27.23
     31.9820	   28.00	   29.19	 -953.03	   27.19
     32.0154	   26.00	   29.15	 -954.99	   27.15
     32.0488	   32.00	   29.11	 -948.95	   27.11
     32.0822	   26.00	   29.07	 -954.91	   27.07
     32.1157	   35.00	   29.03	 -945.87	   27.03
     32.1491	   28.00	   28.99	 -952.83	   26.99
     32.1825	   35.00	   28.96	 -945.79	   26.95
     32.2159	   30.00	   28.92	 -950.75	   26.91
     32.2494	   38.00	   28.88	 -942.71	   26.87
     32.2828	   32.00	   28.84	 -948.67	   26.84
     32.3162	   33.00	   28.80	 -947.64	   26.80
     32.3496	   31.00	   28.76	 -949.60	   26.76
     32.3830	   22.00	   28.72	 -958.56	   26.72
     32.4165	   23.00	   28.68	 -957.52	   26.68
     32.4499	   35.00	   28.64	 -945.48	   26.64
     32.4833	   34.00	   28.61	 -946.44	   26.60
     32.5167	   32.00	   28.57	 -948.40	   26.56
     32.5502	   26.00	   28.53	 -954.37	   26.53
     32.5836	   33.00	   28.49	 -947.33	   26.49
     32.6170	   25.00	   28.45	 -955.29	   26.45
     32.6504	   26.00	   28.41	 -954.25	   26.41
     32.6839	   30.00	   28.38	 -950.21	   26.37
     32.7173	   30.00	   28.34	 -950.17	   26.33
     32.7507	   35.00	   28.30	 -945.14	   26.30
     32.7841	   40.00	   28.26	 -940.10	   26.26
     32.8175	   25.00	   28.22	 -955.06	   26.22
     32.8510	   28.00	   28.19	 -952.02	   26.18
     32.8844	   25.00	   28.15	 -954.98	   26.14
     32.9178	   27.00	   28.11	 -952.95	   26.11
     32.9512	   24.00	   28.07	 -955.91	   26.07
     32.9847	   33.00	   28.03	 -946.87	   26.03
     33.0181	   28.00	   28.00	 -951.83	   25.99
     33.0515	   22.00	   27.96	 -957.80	   25.96
     33.0849	   26.00	   27.92	 -953.76	   25.92
     33.1183	   19.00	   27.88	 -960.72	   25.88
     33.1518	   15.00	   27.85	 -964.68	   25.84
     33.1852	   21.00	   27.81	 -958.65	   25.81
     33.2186	   34.00	   28.19	 -946.03	   25.77
     33.2520	   22.00	   28.16	 -958.00	   25.73
     33.2855	   34.00	   28.14	 -945.97	   25.69
     33.3189	   18.00	   28.32	 -962.16	   25.66
     33.3523	   24.00	   28.30	 -956.14	   25.62
     33.3857	   18.00	   28.28	 -962.12	   25.58
     33.4192	   23.00	   28.26	 -957.10	   25.54
