 TiO2   Chi2:  1.4631  CELL:    4.59399   4.59399   2.95887   90.0000   90.0000   90.0000   SPGR: P 42/m n m             TEMP:      0.00
  2   2394     1.54060     1.54439     0.00000     0.03598     0.00000    0
    56    56     0     0     0
 2Theta	Yobs	Ycal	Yobs-Ycal	Backg	Posr	(hkl)	K
     20.0167	   47.00	   43.44	-1225.82	   41.76
     20.0501	   60.00	   43.38	-1212.76	   41.70
     20.0836	   48.00	   43.32	-1224.70	   41.64
     20.1170	   50.00	   43.26	-1222.64	   41.58
     20.1504	   52.00	   43.20	-1220.58	   41.52
     20.1838	   45.00	   43.14	-1227.52	   41.46
     20.2172	   51.00	   43.09	-1221.47	   41.40
     20.2507	   49.00	   43.03	-1223.41	   41.34
     20.2841	   54.00	   42.97	-1218.35	   41.28
     20.3175	   48.00	   42.91	-1224.29	   41.22
     20.3509	   71.00	   42.85	-1201.23	   41.16
     20.3844	   45.00	   42.79	-1227.17	   41.10
     20.4178	   52.00	   42.73	-1220.11	   41.04
     20.4512	   57.00	   42.67	-1215.05	   40.99
     20.4846	   51.00	   42.61	-1220.99	   40.93
     20.5181	   64.00	   42.55	-1207.93	   40.87
     20.5515	   49.00	   42.49	-1222.87	   40.81
     20.5849	   47.00	   42.44	-1224.82	   40.75
     20.6183	   58.00	   42.38	-1213.76	   40.69
     20.6517	   49.00	   42.32	-1222.70	   40.63
     20.6852	   50.00	   42.26	-1221.64	   40.57
     20.7186	   62.00	   42.20	-1209.58	   40.52
     20.7520	   54.00	   42.14	-1217.52	   40.46
     20.7854	   52.00	   42.09	-1219.47	   40.40
     20.8189	   46.00	   42.03	-1225.41	   40.34
     20.8523	   45.00	   41.97	-1226.35	   40.28
     20.8857	   58.00	   41.91	-1213.29	   40.23
     20.9191	   64.00	   41.85	-1207.23	   40.17
     20.9525	   50.00	   41.80	-1221.18	   40.11
     20.9860	   41.00	   41.74	-1230.12	   40.05
     21.0194	   46.00	   41.68	-1225.06	   39.99
     21.0528	   40.00	   41.62	-1231.00	   39.94
     21.0862	   40.00	   41.56	-1230.94	   39.88
     21.1197	   58.00	   41.51	-1212.89	   39.82
     21.1531	   49.00	   41.45	-1221.83	   39.76
     21.1865	   46.00	   41.39	-1224.77	   39.71
     21.2199	   53.00	   41.33	-1217.71	   39.65
     21.2533	   53.00	   41.28	-1217.66	   39.59
     21.2868	   40.00	   41.22	-1230.60	   39.53
     21.3202	   45.00	   41.16	-1225.54	   39.48
     21.3536	   39.00	   41.11	-1231.49	   39.42
     21.3870	   57.00	   41.05	-1213.43	   39.36
     21.4205	   52.00	   40.99	-1218.37	   39.31
     21.4539	   31.00	   40.93	-1239.31	   39.25
     21.4873	   51.00	   40.88	-1219.26	   39.19
     21.5207	   70.00	   40.82	-1200.20	   39.14
     21.5541	   50.00	   40.76	-1220.14	   39.08
     21.5876	   53.00	   40.71	-1217.09	   39.02
     21.6210	   51.00	   40.65	-1219.03	   38.97
     21.6544	   35.00	   40.59	-1234.97	   38.91
     21.6878	   40.00	   40.54	-1229.92	   38.85
     21.7213	   47.00	   40.48	-1222.86	   38.80
     21.7547	   34.00	   40.43	-1235.81	   38.74
     21.7881	   34.00	   40.37	-1235.75	   38.68
     21.8215	   45.00	   40.31	-1224.69	   38.63
     21.8550	   56.00	   40.26	-1213.64	   38.57
     21.8884	   45.00	   40.20	-1224.58	   38.52
     21.9218	   56.00	   40.15	-1213.52	   38.46
     21.9552	   38.00	   40.09	-1231.47	   38.40
     21.9886	   39.00	   40.03	-1230.41	   38.35
     22.0221	   45.00	   39.98	-1224.36	   38.29
     22.0555	   41.00	   39.92	-1228.30	   38.24
     22.0889	   50.00	   39.87	-1219.25	   38.18
     22.1223	   51.00	   39.81	-1218.19	   38.12
     22.1558	   40.00	   39.76	-1229.13	   38.07
     22.1892	   46.00	   39.70	-1223.08	   38.01
     22.2226	   38.00	   39.64	-1231.02	   37.96
     22.2560	   48.00	   39.59	-1220.97	   37.90
     22.2894	   45.00	   39.53	-1223.91	   37.85
     22.3229	   30.00	   39.48	-1238.86	   37.79
     22.3563	   42.00	   39.42	-1226.80	   37.74
     22.3897	   41.00	   39.37	-1227.75	   37.68
     22.4231	   39.00	   39.31	-1229.69	   37.63
     22.4566	   50.00	   39.26	-1218.64	   37.57
     22.4900	   51.00	   39.20	-1217.58	   37.52
     22.5234	   62.00	   39.15	-1206.53	   37.46
     22.5568	   42.00	   39.09	-1226.47	   37.41
     22.5902	   48.00	   39.04	-1220.42	   37.35
     22.6237	   33.00	   38.98	-1235.36	   37.30
     22.6571	   50.00	   38.93	-1218.31	   37.24
     22.6905	   35.00	   38.88	-1233.26	   37.19
     22.7239	   41.00	   38.82	-1227.20	   37.14
     22.7574	   38.00	   38.80	-1230.18	   37.08
     22.7908	   41.00	   38.74	-1227.12	   37.03
     22.8242	   50.00	   38.71	-1218.09	   36.97
     22.8576	   42.00	   38.65	-1226.03	   36.92
     22.8911	   48.00	   38.60	-1219.98	   36.87
     22.9245	   60.00	   38.55	-1207.93	   36.81
     22.9579	   43.00	   38.50	-1224.88	   36.76
     22.9913	   39.00	   38.44	-1228.82	   36.70
     23.0247	   36.00	   38.39	-1231.77	   36.65
     23.0582	   49.00	   38.34	-1218.72	   36.60
     23.0916	   38.00	   38.29	-1229.67	   36.54
     23.1250	   41.00	   38.23	-1226.61	   36.49
     23.1584	   37.00	   38.18	-1230.56	   36.43
     23.1919	   40.00	   38.13	-1227.51	   36.38
     23.2253	   41.00	   38.08	-1226.46	   36.33
     23.2587	   49.00	   38.03	-1218.41	   36.27
     23.2921	   34.00	   37.98	-1233.36	   36.22
     23.3255	   43.00	   37.93	-1224.31	   36.17
     23.3590	   34.00	   37.88	-1233.26	   36.12
     23.3924	   39.00	   37.83	-1228.21	   36.06
     23.4258	   49.00	   37.78	-1218.16	   36.01
     23.4592	   41.00	   37.73	-1226.11	   35.96
     23.4927	   41.00	   37.68	-1226.06	   35.90
     23.5261	   45.00	   37.63	-1222.01	   35.85
     23.5595	   57.00	   37.58	-1209.96	   35.80
     23.5929	   42.00	   37.53	-1224.91	   35.74
     23.6263	   43.00	   37.48	-1223.86	   35.69
     23.6598	   30.00	   37.43	-1236.81	   35.64
     23.6932	   33.00	   37.38	-1233.76	   35.59
     23.7266	   33.00	   37.33	-1233.71	   35.53
     23.7600	   39.00	   37.29	-1227.67	   35.48
     23.7935	   49.00	   37.24	-1217.62	   35.43
     23.8269	   46.00	   37.19	-1220.57	   35.38
     23.8603	   47.00	   37.15	-1219.53	   35.33
     23.8937	   38.00	   37.10	-1228.48	   35.27
     23.9271	   40.00	   37.05	-1226.43	   35.22
     23.9606	   36.00	   37.01	-1230.39	   35.17
     23.9940	   28.00	   36.97	-1238.34	   35.12
     24.0274	   40.00	   36.92	-1226.30	   35.07
     24.0608	   39.00	   36.88	-1227.26	   35.01
     24.0943	   35.00	   36.84	-1231.22	   34.96
     24.1277	   35.00	   36.79	-1231.17	   34.91
     24.1611	   30.00	   36.75	-1236.13	   34.86
     24.1945	   45.00	   36.72	-1221.09	   34.81
     24.2280	   31.00	   36.68	-1235.06	   34.76
     24.2614	   49.00	   36.64	-1217.02	   34.70
     24.2948	   45.00	   36.60	-1220.98	   34.65
     24.3282	   37.00	   36.57	-1228.95	   34.60
     24.3616	   49.00	   36.54	-1216.92	   34.55
     24.3951	   41.00	   36.51	-1224.89	   34.50
     24.4285	   42.00	   36.48	-1223.86	   34.45
     24.4619	   45.00	   36.46	-1220.84	   34.40
     24.4953	   38.00	   36.43	-1227.81	   34.35
     24.5288	   38.00	   36.42	-1227.80	   34.30
     24.5622	   37.00	   36.40	-1228.78	   34.24
     24.5956	   47.00	   36.39	-1218.77	   34.19
     24.6290	   38.00	   36.39	-1227.77	   34.14
     24.6624	   34.00	   36.40	-1231.78	   34.09
     24.6959	   36.00	   36.41	-1229.79	   34.04
     24.7293	   41.00	   36.43	-1224.81	   33.99
     24.7627	   38.00	   36.47	-1227.85	   33.94
     24.7961	   46.00	   36.52	-1219.90	   33.89
     24.8296	   34.00	   36.59	-1231.97	   33.84
     24.8630	   46.00	   36.69	-1220.07	   33.79
     24.8964	   38.00	   37.96	-1229.34	   33.74
     24.9298	   37.00	   38.16	-1230.54	   33.69
     24.9632	   38.00	   38.99	-1230.37	   33.64
     24.9967	   46.00	   39.35	-1222.73	   33.59
     25.0301	   32.00	   39.82	-1237.20	   33.54
     25.0635	   41.00	   40.46	-1228.84	   33.49
     25.0969	   54.00	   41.35	-1216.73	   33.44
     25.1304	   32.00	   42.65	-1240.03	   33.39
     25.1638	   54.00	   44.65	-1220.03	   33.34
     25.1972	   58.00	   48.10	-1219.48	   33.29
     25.2306	   55.00	   55.61	-1229.99	   33.24
     25.2640	   86.00	   74.30	-1217.67	   33.19
     25.2975	  144.00	  113.68	-1199.06	   33.14
     25.3309	  149.00	  163.73	-1244.11	   33.09
     25.3643	  143.00	  170.83	-1257.21	   33.04
     25.3977	  164.00	  145.94	-1211.32	   32.99
     25.4312	  104.00	  108.15	-1233.53	   32.95
     25.4646	   77.00	   74.27	-1226.65	   32.90
     25.4980	   63.00	   56.24	-1222.62	   32.85
     25.5314	   58.00	   48.42	-1219.80	   32.80
     25.5649	   53.00	   44.91	-1221.29	   32.75
     25.5983	   52.00	   42.99	-1220.37	   32.70
     25.6317	   45.00	   41.79	-1226.17	   32.65
     25.6651	   47.00	   40.99	-1223.37	   32.60
     25.6985	   40.00	   40.44	-1229.82	   32.55
     25.7320	   33.00	   40.07	-1236.45	   32.51
     25.7654	   34.00	   39.81	-1235.19	   32.46
     25.7988	   39.00	   39.63	-1230.01	   32.41
     25.8322	   34.00	   39.53	-1234.91	   32.36
     25.8657	   35.00	   39.47	-1233.85	   32.31
     25.8991	   27.00	   39.46	-1241.84	   32.26
     25.9325	   46.00	   39.49	-1222.87	   32.21
     25.9659	   39.00	   39.54	-1229.92	   32.17
     25.9993	   41.00	   39.63	-1228.01	   32.12
     26.0328	   33.00	   39.74	-1236.12	   32.07
     26.0662	   35.00	   39.89	-1234.27	   32.02
     26.0996	   40.00	   40.05	-1229.43	   31.97
     26.1330	   41.00	   40.25	-1228.63	   31.93
     26.1665	   43.00	   40.47	-1226.85	   31.88
     26.1999	   34.00	   40.73	-1236.11	   31.83
     26.2333	   34.00	   41.01	-1236.39	   31.78
     26.2667	   24.00	   41.33	-1246.71	   31.74
     26.3001	   49.00	   41.68	-1222.06	   31.69
     26.3336	   38.00	   42.08	-1233.46	   31.64
     26.3670	   39.00	   42.52	-1232.90	   31.59
     26.4004	   49.00	   43.01	-1223.39	   31.55
     26.4338	   48.00	   43.55	-1224.93	   31.50
     26.4673	   49.00	   44.16	-1224.54	   31.45
     26.5007	   38.00	   44.84	-1236.22	   31.40
     26.5341	   62.00	   45.59	-1212.97	   31.36
     26.5675	   61.00	   46.44	-1214.82	   31.31
     26.6010	   61.00	   47.40	-1215.77	   31.26
     26.6344	   54.00	   48.47	-1223.85	   31.22
     26.6678	   69.00	   49.69	-1210.07	   31.17
     26.7012	   68.00	   51.07	-1212.45	   31.12
     26.7346	   68.00	   52.64	-1214.02	   31.07
     26.7681	   55.00	   54.45	-1228.83	   31.03
     26.8015	   51.00	   56.54	-1234.92	   30.98
     26.8349	   77.00	   58.96	-1211.34	   30.93
     26.8683	   79.00	   61.79	-1212.17	   30.89
     26.9018	   85.00	   65.12	-1209.50	   30.84
     26.9352	   87.00	   69.08	-1211.46	   30.80
     26.9686	   81.00	   73.84	-1222.22	   30.75
     27.0020	   81.00	   79.61	-1227.99	   30.70
     27.0354	   94.00	   86.70	-1222.08	   30.66
     27.0689	   90.00	   95.54	-1234.92	   30.61
     27.1023	  101.00	  106.77	-1235.15	   30.56
     27.1357	  127.00	  121.29	-1223.67	   30.52
     27.1691	  159.00	  140.55	-1210.93	   30.47
     27.2026	  165.00	  166.80	-1231.18	   30.43
     27.2360	  217.00	  203.87	-1216.25	   30.38
     27.2694	  257.00	  258.60	-1230.98	   30.33
     27.3028	  380.00	  345.52	-1194.90	   30.29
     27.3362	  533.00	  507.64	-1204.02	   30.24
     27.3697	  917.00	  886.76	-1199.14	   30.20
     27.4031	 1873.00	 1798.25	-1154.63	   30.15
     27.4365	 3597.00	 3470.61	-1102.99	   30.11
     27.4699	 4852.00	 4917.52	-1294.90	   30.06
     27.5034	 4603.00	 4540.55	-1166.93	   30.02
     27.5368	 3638.00	 3617.69	-1209.07	   29.97
     27.5702	 2291.00	 2295.48	-1233.86	   29.92
     27.6036	 1345.00	 1209.17	-1093.55	   29.88
     27.6371	  671.00	  646.69	-1205.07	   29.83
     27.6705	  444.00	  401.42	-1186.80	   29.79
     27.7039	  264.00	  286.57	-1251.95	   29.74
     27.7373	  199.00	  220.79	-1251.17	   29.70
     27.7707	  161.00	  177.85	-1246.23	   29.65
     27.8042	  125.00	  148.01	-1252.39	   29.61
     27.8376	  124.00	  126.42	-1231.80	   29.56
     27.8710	   88.00	  110.29	-1251.67	   29.52
     27.9044	  112.00	   97.92	-1215.30	   29.47
     27.9379	   91.00	   88.22	-1226.60	   29.43
     27.9713	   84.00	   80.45	-1225.83	   29.39
     28.0047	   73.00	   74.15	-1230.53	   29.34
     28.0381	   70.00	   68.98	-1228.36	   29.30
     28.0715	   63.00	   64.68	-1231.06	   29.25
     28.1050	   58.00	   61.05	-1232.43	   29.21
     28.1384	   46.00	   57.96	-1241.34	   29.16
     28.1718	   49.00	   55.32	-1235.70	   29.12
     28.2052	   67.00	   53.03	-1215.41	   29.08
     28.2387	   53.00	   51.03	-1227.41	   29.03
     28.2721	   48.00	   49.28	-1230.66	   28.99
     28.3055	   47.00	   47.74	-1230.12	   28.94
     28.3389	   51.00	   46.37	-1224.75	   28.90
     28.3723	   55.00	   45.15	-1219.53	   28.86
     28.4058	   50.00	   44.06	-1223.44	   28.81
     28.4392	   36.00	   43.07	-1236.45	   28.77
     28.4726	   48.00	   42.18	-1223.56	   28.72
     28.5060	   52.00	   41.38	-1218.76	   28.68
     28.5395	   53.00	   40.64	-1217.02	   28.64
     28.5729	   49.00	   39.97	-1220.35	   28.59
     28.6063	   60.00	   39.35	-1208.73	   28.55
     28.6397	   40.00	   38.79	-1228.17	   28.51
     28.6731	   31.00	   38.26	-1236.64	   28.46
     28.7066	   47.00	   37.78	-1220.16	   28.42
     28.7400	   33.00	   37.33	-1233.71	   28.38
     28.7734	   38.00	   36.91	-1228.29	   28.33
     28.8068	   41.00	   36.52	-1224.90	   28.29
     28.8403	   38.00	   36.16	-1227.54	   28.25
     28.8737	   30.00	   35.82	-1235.20	   28.20
     28.9071	   41.00	   35.50	-1223.88	   28.16
     28.9405	   46.00	   35.20	-1218.58	   28.12
     28.9740	   39.00	   34.92	-1225.30	   28.08
     29.0074	   34.00	   34.65	-1230.03	   28.03
     29.0408	   33.00	   34.39	-1230.77	   27.99
     29.0742	   40.00	   34.15	-1223.53	   27.95
     29.1076	   30.00	   33.93	-1233.31	   27.91
     29.1411	   31.00	   33.71	-1232.09	   27.86
     29.1745	   26.00	   33.50	-1236.88	   27.82
     29.2079	   47.00	   33.31	-1215.69	   27.78
     29.2413	   35.00	   33.12	-1227.50	   27.74
     29.2748	   26.00	   32.94	-1236.32	   27.69
     29.3082	   32.00	   32.77	-1230.15	   27.65
     29.3416	   37.00	   32.60	-1224.98	   27.61
     29.3750	   31.00	   32.44	-1230.82	   27.57
     29.4084	   40.00	   32.29	-1221.67	   27.52
     29.4419	   34.00	   32.15	-1227.52	   27.48
     29.4753	   36.00	   32.00	-1225.38	   27.44
     29.5087	   27.00	   31.87	-1234.25	   27.40
     29.5421	   33.00	   31.74	-1228.12	   27.36
     29.5756	   28.00	   31.61	-1232.99	   27.32
     29.6090	   40.00	   31.48	-1220.86	   27.27
     29.6424	   30.00	   31.37	-1230.74	   27.23
     29.6758	   36.00	   31.25	-1224.63	   27.19
     29.7092	   35.00	   31.14	-1225.52	   27.15
     29.7427	   23.00	   31.03	-1237.41	   27.11
     29.7761	   25.00	   30.92	-1235.30	   27.07
     29.8095	   26.00	   30.82	-1234.20	   27.02
     29.8429	   28.00	   30.72	-1232.10	   26.98
     29.8764	   24.00	   30.62	-1236.00	   26.94
     29.9098	   28.00	   30.52	-1231.90	   26.90
     29.9432	   23.00	   30.43	-1236.81	   26.86
     29.9766	   18.00	   30.34	-1241.72	   26.82
     30.0101	   31.00	   30.25	-1228.63	   26.78
     30.0435	   28.00	   30.16	-1231.54	   26.74
     30.0769	   26.00	   28.96	-1232.34	   26.70
     30.1103	   27.00	   28.91	-1231.29	   26.65
     30.1437	   35.00	   28.30	-1222.68	   26.61
     30.1772	   31.00	   28.26	-1226.64	   26.57
     30.2106	   27.00	   28.22	-1230.60	   26.53
     30.2440	   26.00	   28.18	-1231.56	   26.49
     30.2774	   25.00	   28.14	-1232.52	   26.45
     30.3109	   24.00	   28.10	-1233.48	   26.41
     30.3443	   39.00	   28.06	-1218.44	   26.37
     30.3777	   25.00	   28.02	-1232.40	   26.33
     30.4111	   24.00	   27.98	-1233.36	   26.29
     30.4445	   25.00	   27.94	-1232.31	   26.25
     30.4780	   28.00	   27.90	-1229.27	   26.21
     30.5114	   27.00	   27.85	-1230.23	   26.17
     30.5448	   25.00	   27.81	-1232.19	   26.13
     30.5782	   30.00	   27.77	-1227.15	   26.09
     30.6117	   27.00	   27.73	-1230.11	   26.05
     30.6451	   30.00	   27.69	-1227.07	   26.01
     30.6785	   41.00	   27.65	-1216.03	   25.97
     30.7119	   25.00	   27.61	-1231.99	   25.93
     30.7453	   13.00	   27.58	-1243.95	   25.89
     30.7788	   24.00	   27.54	-1232.92	   25.85
     30.8122	   22.00	   27.50	-1234.88	   25.81
     30.8456	   23.00	   27.46	-1233.84	   25.77
     30.8790	   23.00	   27.42	-1233.80	   25.73
     30.9125	   22.00	   27.38	-1234.76	   25.69
     30.9459	   24.00	   27.34	-1232.72	   25.65
     30.9793	   31.00	   27.30	-1225.68	   25.61
     31.0127	   28.00	   27.26	-1228.64	   25.57
     31.0462	   23.00	   27.22	-1233.60	   25.53
     31.0796	   25.00	   27.18	-1231.56	   25.49
     31.1130	   35.00	   27.14	-1221.52	   25.46
     31.1464	   24.00	   27.10	-1232.48	   25.42
     31.1798	   34.00	   27.06	-1222.44	   25.38
     31.2133	   24.00	   27.02	-1232.40	   25.34
     31.2467	   24.00	   26.99	-1232.36	   25.30
     31.2801	   34.00	   26.95	-1222.33	   25.26
     31.3135	   33.00	   26.91	-1223.29	   25.22
     31.3470	   19.00	   26.87	-1237.25	   25.18
     31.3804	   35.00	   26.83	-1221.21	   25.14
     31.4138	   19.00	   26.79	-1237.17	   25.11
     31.4472	   33.00	   26.75	-1223.13	   25.07
     31.4806	   31.00	   26.71	-1225.09	   25.03
     31.5141	   23.00	   26.68	-1233.06	   24.99
     31.5475	   28.00	   26.64	-1228.02	   24.95
     31.5809	   31.00	   26.60	-1224.98	   24.91
     31.6143	   21.00	   26.56	-1234.94	   24.87
     31.6478	   35.00	   26.52	-1220.90	   24.84
     31.6812	   24.00	   26.48	-1231.86	   24.80
     31.7146	   32.00	   26.45	-1223.83	   24.76
     31.7480	   28.00	   26.41	-1227.79	   24.72
     31.7814	   35.00	   26.37	-1220.75	   24.68
     31.8149	   27.00	   26.33	-1228.71	   24.65
     31.8483	   22.00	   26.29	-1233.67	   24.61
     31.8817	   24.00	   26.26	-1231.64	   24.57
     31.9151	   25.00	   26.22	-1230.60	   24.53
     31.9486	   27.00	   26.18	-1228.56	   24.49
     31.9820	   17.00	   26.14	-1238.52	   24.46
     32.0154	   23.00	   26.10	-1232.48	   24.42
     32.0488	   28.00	   26.07	-1227.45	   24.38
     32.0822	   24.00	   26.03	-1231.41	   24.34
     32.1157	   32.00	   25.99	-1223.37	   24.31
     32.1491	   24.00	   25.95	-1231.33	   24.27
     32.1825	   26.00	   25.92	-1229.30	   24.23
     32.2159	   20.00	   25.88	-1235.26	   24.19
     32.2494	   27.00	   25.84	-1228.22	   24.16
     32.2828	   22.00	   25.81	-1233.19	   24.12
     32.3162	   33.00	   25.77	-1222.15	   24.08
     32.3496	   25.00	   25.73	-1230.11	   24.05
     32.3830	   23.00	   25.69	-1232.07	   24.01
     32.4165	   30.00	   25.66	-1225.04	   23.97
     32.4499	   22.00	   25.62	-1233.00	   23.93
     32.4833	   45.00	   25.58	-1209.96	   23.90
     32.5167	   21.00	   25.55	-1233.93	   23.86
     32.5502	   17.00	   25.51	-1237.89	   23.82
     32.5836	   25.00	   25.47	-1229.85	   23.79
     32.6170	   25.00	   25.44	-1229.82	   23.75
     32.6504	   19.00	   25.40	-1235.78	   23.71
     32.6839	   27.00	   25.36	-1227.74	   23.68
     32.7173	   25.00	   25.33	-1229.71	   23.64
     32.7507	   24.00	   25.29	-1230.67	   23.60
     32.7841	   19.00	   25.25	-1235.63	   23.57
     32.8175	   32.00	   25.22	-1222.60	   23.53
     32.8510	   21.00	   25.18	-1233.56	   23.49
     32.8844	   20.00	   25.14	-1234.52	   23.46
     32.9178	   20.00	   25.11	-1234.49	   23.42
     32.9512	   30.00	   25.07	-1224.45	   23.39
     32.9847	   17.00	   25.04	-1237.42	   23.35
     33.0181	   22.00	   25.00	-1232.38	   23.31
     33.0515	   23.00	   24.96	-1231.34	   23.28
     33.0849	   22.00	   24.93	-1232.31	   23.24
     33.1183	   16.00	   24.89	-1238.27	   23.21
     33.1518	   37.00	   24.86	-1217.24	   23.17
     33.1852	   30.00	   24.82	-1224.20	   23.13
     33.2186	   24.00	   24.78	-1230.16	   23.10
     33.2520	   27.00	   24.75	-1227.13	   23.06
     33.2855	   32.00	   24.71	-1222.09	   23.03
     33.3189	   26.00	   24.68	-1228.06	   22.99
     33.3523	   21.00	   24.64	-1233.02	   22.96
     33.3857	   25.00	   24.61	-1228.99	   22.92
     33.4192	   20.00	   24.57	-1233.95	   22.89
