 Fe3O4   Chi2:  1.7899  CELL:    8.39629   8.39629   8.39629   90.0000   90.0000   90.0000   SPGR: 227:2                  TEMP:      0.00
  1   2693     1.54060     1.54439     0.00000    -0.00980     0.00000    0
    60     0     1
       0.00000      15.00000
 2Theta	Yobs	Ycal	Yobs-Ycal	Backg	Posr	(hkl)	K
     10.0167	  203.00	  131.92	 -470.00	  129.51
     10.0501	  209.00	  131.64	 -470.00	  129.23
     10.0836	  210.00	  131.36	 -470.00	  128.95
     10.1170	  202.00	  131.08	 -470.00	  128.67
     10.1504	  199.00	  130.80	 -470.00	  128.39
     10.1838	  208.00	  130.52	 -470.00	  128.12
     10.2172	  206.00	  130.24	 -470.00	  127.84
     10.2507	  211.00	  129.97	 -470.00	  127.56
     10.2841	  199.00	  129.69	 -470.00	  127.28
     10.3175	  194.00	  129.41	 -470.00	  127.01
     10.3509	  190.00	  129.14	 -470.00	  126.73
     10.3844	  199.00	  128.86	 -470.00	  126.45
     10.4178	  199.00	  128.58	 -470.00	  126.18
     10.4512	  190.00	  128.31	 -470.00	  125.90
     10.4846	  182.00	  128.04	 -470.00	  125.63
     10.5180	  167.00	  127.76	 -470.00	  125.35
     10.5515	  186.00	  127.49	 -470.00	  125.08
     10.5849	  180.00	  127.21	 -470.00	  124.81
     10.6183	  186.00	  126.94	 -470.00	  124.54
     10.6517	  177.00	  126.67	 -470.00	  124.26
     10.6852	  176.00	  126.40	 -470.00	  123.99
     10.7186	  176.00	  126.13	 -470.00	  123.72
     10.7520	  186.00	  125.86	 -470.00	  123.45
     10.7854	  189.00	  125.59	 -470.00	  123.18
     10.8189	  199.00	  125.32	 -470.00	  122.91
     10.8523	  181.00	  125.05	 -470.00	  122.64
     10.8857	  162.00	  124.78	 -470.00	  122.37
     10.9191	  184.00	  124.51	 -470.00	  122.11
     10.9525	  163.00	  124.24	 -470.00	  121.84
     10.9860	  180.00	  123.98	 -470.00	  121.57
     11.0194	  159.00	  123.71	 -470.00	  121.30
     11.0528	  173.00	  123.44	 -470.00	  121.04
     11.0862	  184.00	  123.18	 -470.00	  120.77
     11.1197	  176.00	  122.91	 -470.00	  120.51
     11.1531	  188.00	  122.65	 -470.00	  120.24
     11.1865	  140.00	  122.38	 -470.00	  119.98
     11.2199	  169.00	  122.12	 -470.00	  119.71
     11.2533	  180.00	  121.86	 -470.00	  119.45
     11.2868	  148.00	  121.59	 -470.00	  119.19
     11.3202	  156.00	  121.33	 -470.00	  118.93
     11.3536	  184.00	  121.07	 -470.00	  118.66
     11.3870	  171.00	  120.81	 -470.00	  118.40
     11.4205	  178.00	  120.55	 -470.00	  118.14
     11.4539	  162.00	  120.29	 -470.00	  117.88
     11.4873	  155.00	  120.03	 -470.00	  117.62
     11.5207	  157.00	  119.77	 -470.00	  117.36
     11.5541	  130.00	  119.51	 -470.00	  117.10
     11.5876	  142.00	  119.25	 -470.00	  116.84
     11.6210	  170.00	  118.99	 -470.00	  116.58
     11.6544	  157.00	  118.73	 -470.00	  116.33
     11.6878	  153.00	  118.48	 -470.00	  116.07
     11.7213	  169.00	  118.22	 -470.00	  115.81
     11.7547	  146.00	  117.96	 -470.00	  115.56
     11.7881	  145.00	  117.71	 -470.00	  115.30
     11.8215	  161.00	  117.45	 -470.00	  115.05
     11.8550	  153.00	  117.20	 -470.00	  114.79
     11.8884	  146.00	  116.94	 -470.00	  114.54
     11.9218	  145.00	  116.69	 -470.00	  114.28
     11.9552	  148.00	  116.43	 -470.00	  114.03
     11.9886	  156.00	  116.18	 -470.00	  113.77
     12.0221	  161.00	  115.93	 -470.00	  113.52
     12.0555	  140.00	  115.68	 -470.00	  113.27
     12.0889	  172.00	  115.42	 -470.00	  113.02
     12.1223	  154.00	  115.17	 -470.00	  112.77
     12.1558	  142.00	  114.92	 -470.00	  112.52
     12.1892	  125.00	  114.67	 -470.00	  112.27
     12.2226	  140.00	  114.42	 -470.00	  112.02
     12.2560	  133.00	  114.17	 -470.00	  111.77
     12.2894	  153.00	  113.92	 -470.00	  111.52
     12.3229	  168.00	  113.68	 -470.00	  111.27
     12.3563	  144.00	  113.43	 -470.00	  111.02
     12.3897	  138.00	  113.18	 -470.00	  110.77
     12.4231	  132.00	  112.93	 -470.00	  110.53
     12.4566	  151.00	  112.69	 -470.00	  110.28
     12.4900	  115.00	  112.44	 -470.00	  110.03
     12.5234	  117.00	  112.19	 -470.00	  109.79
     12.5568	  124.00	  111.95	 -470.00	  109.54
     12.5902	  148.00	  111.70	 -470.00	  109.30
     12.6237	  138.00	  111.46	 -470.00	  109.05
     12.6571	  137.00	  111.22	 -470.00	  108.81
     12.6905	  151.00	  110.97	 -470.00	  108.57
     12.7239	  129.00	  110.73	 -470.00	  108.32
     12.7574	  144.00	  110.49	 -470.00	  108.08
     12.7908	  148.00	  110.24	 -470.00	  107.84
     12.8242	  124.00	  110.00	 -470.00	  107.60
     12.8576	  138.00	  109.76	 -470.00	  107.35
     12.8910	  119.00	  109.52	 -470.00	  107.11
     12.9245	  118.00	  109.28	 -470.00	  106.87
     12.9579	  115.00	  109.04	 -470.00	  106.63
     12.9913	  136.00	  108.80	 -470.00	  106.39
     13.0247	  133.00	  108.56	 -470.00	  106.15
     13.0582	  136.00	  108.32	 -470.00	  105.92
     13.0916	  128.00	  108.08	 -470.00	  105.68
     13.1250	  141.00	  107.85	 -470.00	  105.44
     13.1584	  132.00	  107.61	 -470.00	  105.20
     13.1919	  143.00	  107.37	 -470.00	  104.97
     13.2253	  110.00	  107.14	 -470.00	  104.73
     13.2587	  102.00	  106.90	 -470.00	  104.49
     13.2921	  143.00	  106.66	 -470.00	  104.26
     13.3255	  123.00	  106.43	 -470.00	  104.02
     13.3590	  127.00	  106.19	 -470.00	  103.79
     13.3924	  108.00	  105.96	 -470.00	  103.55
     13.4258	  123.00	  105.73	 -470.00	  103.32
     13.4592	  138.00	  105.49	 -470.00	  103.09
     13.4927	  112.00	  105.26	 -470.00	  102.85
     13.5261	  137.00	  105.03	 -470.00	  102.62
     13.5595	  115.00	  104.80	 -470.00	  102.39
     13.5929	  108.00	  104.56	 -470.00	  102.16
     13.6263	  123.00	  104.33	 -470.00	  101.93
     13.6598	  105.00	  104.10	 -470.00	  101.70
     13.6932	  119.00	  103.87	 -470.00	  101.47
     13.7266	  117.00	  103.64	 -470.00	  101.24
     13.7600	  114.00	  103.41	 -470.00	  101.01
     13.7935	  126.00	  103.18	 -470.00	  100.78
     13.8269	  126.00	  102.95	 -470.00	  100.55
     13.8603	  114.00	  102.73	 -470.00	  100.32
     13.8937	  136.00	  102.50	 -470.00	  100.09
     13.9271	  128.00	  102.27	 -470.00	   99.87
     13.9606	  101.00	  102.04	 -470.00	   99.64
     13.9940	  136.00	  101.82	 -470.00	   99.41
     14.0274	  129.00	  101.59	 -470.00	   99.19
     14.0608	  101.00	  101.37	 -470.00	   98.96
     14.0943	  117.00	  101.14	 -470.00	   98.74
     14.1277	  125.00	  100.92	 -470.00	   98.51
     14.1611	  106.00	  100.69	 -470.00	   98.29
     14.1945	  108.00	  100.47	 -470.00	   98.06
     14.2280	  109.00	  100.25	 -470.00	   97.84
     14.2614	   90.00	  100.02	 -470.00	   97.62
     14.2948	  119.00	   99.80	 -470.00	   97.39
     14.3282	  115.00	   99.58	 -470.00	   97.17
     14.3616	  122.00	   99.36	 -470.00	   96.95
     14.3951	  121.00	   99.13	 -470.00	   96.73
     14.4285	  103.00	   98.91	 -470.00	   96.51
     14.4619	  125.00	   98.69	 -470.00	   96.29
     14.4953	  111.00	   98.47	 -470.00	   96.07
     14.5288	  121.00	   98.25	 -470.00	   95.85
     14.5622	  112.00	   98.03	 -470.00	   95.63
     14.5956	  132.00	   97.82	 -470.00	   95.41
     14.6290	   87.00	   97.60	 -470.00	   95.19
     14.6624	  113.00	   97.38	 -470.00	   94.97
     14.6959	  118.00	   97.16	 -470.00	   94.75
     14.7293	  124.00	   96.94	 -470.00	   94.54
     14.7627	  154.00	   96.73	 -470.00	   94.32
     14.7961	  102.00	   96.51	 -470.00	   94.10
     14.8296	   90.00	   96.29	 -470.00	   93.89
     14.8630	  106.00	   96.08	 -470.00	   93.67
     14.8964	  110.00	   95.86	 -470.00	   93.46
     14.9298	  121.00	   95.65	 -470.00	   93.24
     14.9632	  115.00	   95.44	 -470.00	   93.03
     14.9967	  108.00	   95.22	 -470.00	   92.82
     15.0301	  137.00	   95.01	 -428.01	   92.60
     15.0635	  108.00	   94.80	 -456.80	   92.39
     15.0969	  115.00	   94.58	 -449.58	   92.18
     15.1304	  110.00	   94.37	 -454.37	   91.96
     15.1638	  109.00	   94.16	 -455.16	   91.75
     15.1972	   98.00	   93.95	 -465.95	   91.54
     15.2306	  113.00	   93.76	 -450.76	   91.33
     15.2640	  109.00	   93.56	 -454.56	   91.12
     15.2975	   95.00	   93.35	 -468.35	   90.91
     15.3309	  110.00	   93.14	 -453.14	   90.70
     15.3643	  112.00	   92.93	 -450.93	   90.49
     15.3977	  119.00	   92.72	 -443.72	   90.28
     15.4312	  130.00	   92.52	 -432.52	   90.07
     15.4646	  100.00	   92.31	 -462.31	   89.86
     15.4980	  117.00	   92.10	 -445.10	   89.66
     15.5314	   91.00	   91.90	 -470.90	   89.45
     15.5649	   99.00	   91.69	 -462.69	   89.24
     15.5983	  103.00	   91.48	 -458.48	   89.04
     15.6317	   91.00	   91.28	 -470.28	   88.83
     15.6651	   84.00	   91.07	 -477.07	   88.62
     15.6985	  104.00	   90.87	 -456.87	   88.42
     15.7320	   82.00	   90.67	 -478.67	   88.21
     15.7654	   91.00	   90.46	 -469.46	   88.01
     15.7988	   95.00	   90.26	 -465.26	   87.81
     15.8322	  111.00	   90.06	 -449.06	   87.60
     15.8657	  113.00	   89.86	 -446.86	   87.40
     15.8991	   92.00	   89.65	 -467.65	   87.20
     15.9325	   99.00	   89.45	 -460.45	   86.99
     15.9659	   85.00	   89.25	 -474.25	   86.79
     15.9993	   81.00	   89.05	 -478.05	   86.59
     16.0328	   79.00	   88.85	 -479.85	   86.39
     16.0662	  100.00	   88.65	 -458.65	   86.19
     16.0996	   92.00	   88.46	 -466.46	   85.99
     16.1330	   91.00	   88.26	 -467.26	   85.79
     16.1665	   75.00	   88.06	 -483.06	   85.59
     16.1999	   95.00	   87.86	 -462.86	   85.39
     16.2333	  118.00	   87.67	 -439.67	   85.19
     16.2667	  111.00	   87.47	 -446.47	   84.99
     16.3001	  100.00	   87.27	 -457.27	   84.79
     16.3336	   96.00	   87.08	 -461.08	   84.60
     16.3670	   99.00	   86.88	 -457.88	   84.40
     16.4004	   92.00	   86.69	 -464.69	   84.20
     16.4338	   91.00	   86.50	 -465.50	   84.00
     16.4673	  103.00	   86.30	 -453.30	   83.81
     16.5007	   88.00	   86.11	 -468.11	   83.61
     16.5341	   76.00	   85.92	 -479.92	   83.42
     16.5675	   99.00	   85.73	 -456.73	   83.22
     16.6010	   85.00	   85.54	 -470.54	   83.03
     16.6344	   88.00	   85.35	 -467.35	   82.83
     16.6678	   78.00	   85.16	 -477.16	   82.64
     16.7012	   94.00	   84.97	 -460.97	   82.45
     16.7346	   88.00	   84.78	 -466.78	   82.25
     16.7681	   84.00	   84.59	 -470.59	   82.06
     16.8015	   78.00	   84.41	 -476.41	   81.87
     16.8349	   83.00	   84.22	 -471.22	   81.68
     16.8683	   94.00	   84.04	 -460.04	   81.48
     16.9018	   97.00	   83.85	 -456.85	   81.29
     16.9352	   76.00	   83.67	 -477.67	   81.10
     16.9686	   79.00	   83.49	 -474.49	   80.91
     17.0020	   69.00	   83.31	 -484.31	   80.72
     17.0354	  102.00	   83.13	 -451.13	   80.53
     17.0689	   82.00	   82.95	 -470.95	   80.34
     17.1023	   82.00	   82.77	 -470.77	   80.15
     17.1357	   86.00	   82.59	 -466.59	   79.97
     17.1691	  100.00	   82.42	 -452.42	   79.78
     17.2026	   85.00	   82.25	 -467.25	   79.59
     17.2360	   96.00	   82.08	 -456.08	   79.40
     17.2694	   84.00	   81.91	 -467.91	   79.22
     17.3028	   73.00	   81.74	 -478.74	   79.03
     17.3362	   87.00	   81.57	 -464.57	   78.84
     17.3697	   94.00	   81.41	 -457.41	   78.66
     17.4031	   96.00	   81.25	 -455.25	   78.47
     17.4365	  105.00	   81.10	 -446.10	   78.29
     17.4699	   85.00	   80.95	 -465.95	   78.10
     17.5034	   85.00	   80.80	 -465.80	   77.92
     17.5368	   99.00	   80.66	 -451.66	   77.73
     17.5702	  111.00	   80.52	 -439.52	   77.55
     17.6036	   91.00	   80.40	 -459.40	   77.37
     17.6371	  100.00	   80.28	 -450.28	   77.18
     17.6705	   89.00	   80.17	 -461.17	   77.00
     17.7039	   83.00	   80.08	 -467.08	   76.82
     17.7373	   88.00	   80.00	 -462.00	   76.64
     17.7707	   92.00	   79.95	 -457.95	   76.46
     17.8042	   85.00	   79.92	 -464.92	   76.28
     17.8376	   87.00	   79.92	 -462.92	   76.10
     17.8710	   87.00	   79.97	 -462.97	   75.91
     17.9044	   77.00	   80.09	 -473.09	   75.74
     17.9379	  105.00	   80.28	 -445.28	   75.56
     17.9713	   90.00	   80.60	 -460.60	   75.38
     18.0047	   84.00	   81.09	 -467.09	   75.20
     18.0381	  100.00	   81.85	 -451.85	   75.02
     18.0715	   85.00	   83.08	 -468.08	   74.84
     18.1050	   96.00	   85.47	 -459.47	   74.66
     18.1384	   94.00	   91.36	 -467.36	   74.49
     18.1718	  108.00	  106.86	 -468.86	   74.31
     18.2052	  127.00	  140.92	 -483.92	   74.13
     18.2387	  170.00	  194.63	 -494.63	   73.96
     18.2721	  208.00	  242.90	 -504.90	   73.78
     18.3055	  222.00	  244.40	 -492.40	   73.61
     18.3389	  156.00	  201.76	 -515.76	   73.43
     18.3723	  132.00	  148.38	 -486.38	   73.26
     18.4058	   92.00	  111.04	 -489.04	   73.08
     18.4392	   90.00	   92.32	 -472.32	   72.91
     18.4726	   91.00	   84.54	 -463.54	   72.73
     18.5060	   91.00	   81.23	 -460.23	   72.56
     18.5395	   77.00	   79.45	 -472.45	   72.39
     18.5729	   84.00	   78.26	 -464.26	   72.21
     18.6063	   75.00	   77.38	 -472.38	   72.04
     18.6397	   74.00	   76.68	 -472.68	   71.87
     18.6731	   82.00	   76.11	 -464.11	   71.70
     18.7066	   77.00	   75.64	 -468.64	   71.53
     18.7400	   91.00	   75.23	 -454.23	   71.36
     18.7734	   68.00	   74.86	 -476.86	   71.19
     18.8068	   77.00	   74.53	 -467.53	   71.02
     18.8403	   87.00	   74.23	 -457.23	   70.85
     18.8737	   69.00	   73.96	 -474.96	   70.68
     18.9071	   76.00	   73.70	 -467.70	   70.51
     18.9405	   69.00	   73.45	 -474.45	   70.34
     18.9740	   92.00	   73.21	 -451.21	   70.17
     19.0074	   84.00	   72.99	 -458.99	   70.00
     19.0408	   73.00	   72.77	 -469.77	   69.84
     19.0742	   84.00	   72.56	 -458.56	   69.67
     19.1076	   73.00	   72.35	 -469.35	   69.50
     19.1411	   77.00	   72.15	 -465.15	   69.34
     19.1745	   79.00	   71.96	 -462.96	   69.17
     19.2079	   78.00	   71.76	 -463.76	   69.00
     19.2413	   88.00	   71.57	 -453.57	   68.84
     19.2748	   77.00	   71.39	 -464.39	   68.67
     19.3082	   65.00	   71.20	 -476.20	   68.51
     19.3416	   70.00	   71.02	 -471.02	   68.34
     19.3750	   86.00	   70.84	 -454.84	   68.18
     19.4084	   70.00	   70.66	 -470.66	   68.02
     19.4419	   73.00	   70.48	 -467.48	   67.85
     19.4753	   65.00	   70.31	 -475.31	   67.69
     19.5087	   64.00	   70.13	 -476.13	   67.53
     19.5421	   55.00	   69.96	 -484.96	   67.36
     19.5756	   71.00	   69.79	 -468.79	   67.20
     19.6090	   73.00	   69.62	 -466.62	   67.04
     19.6424	   72.00	   69.45	 -467.45	   66.88
     19.6758	   59.00	   69.28	 -480.28	   66.72
     19.7092	   60.00	   69.11	 -479.11	   66.56
     19.7427	   79.00	   68.94	 -459.94	   66.40
     19.7761	   76.00	   68.78	 -462.78	   66.24
     19.8095	   87.00	   68.61	 -451.61	   66.08
     19.8429	   60.00	   68.45	 -478.45	   65.92
     19.8764	   65.00	   68.28	 -473.28	   65.76
     19.9098	   90.00	   68.12	 -448.12	   65.60
     19.9432	   63.00	   67.96	 -474.96	   65.44
     19.9766	   65.00	   67.79	 -472.79	   65.28
     20.0100	   81.00	   67.63	 -456.63	   65.13
     20.0435	   65.00	   67.47	 -472.47	   64.97
     20.0769	   59.00	   67.31	 -478.31	   64.81
     20.1103	   68.00	   67.15	 -469.15	   64.66
     20.1437	   60.00	   66.99	 -476.99	   64.50
     20.1772	   64.00	   66.83	 -472.83	   64.34
     20.2106	   63.00	   66.67	 -473.67	   64.19
     20.2440	   72.00	   66.52	 -464.52	   64.03
     20.2774	   69.00	   66.36	 -467.36	   63.88
     20.3109	   57.00	   66.20	 -479.20	   63.72
     20.3443	   78.00	   66.05	 -458.05	   63.57
     20.3777	   59.00	   65.89	 -476.89	   63.41
     20.4111	   62.00	   65.73	 -473.73	   63.26
     20.4445	   47.00	   65.58	 -488.58	   63.11
     20.4780	   62.00	   65.42	 -473.42	   62.95
     20.5114	   76.00	   65.27	 -459.27	   62.80
     20.5448	   51.00	   65.11	 -484.11	   62.65
     20.5782	   52.00	   64.96	 -482.96	   62.50
     20.6117	   71.00	   64.81	 -463.81	   62.35
     20.6451	   65.00	   64.66	 -469.66	   62.20
     20.6785	   62.00	   64.50	 -472.50	   62.04
     20.7119	   59.00	   64.35	 -475.35	   61.89
     20.7453	   71.00	   64.20	 -463.20	   61.74
     20.7788	   59.00	   64.05	 -475.05	   61.59
     20.8122	   54.00	   63.90	 -479.90	   61.44
     20.8456	   58.00	   63.75	 -475.75	   61.29
     20.8790	   72.00	   63.60	 -461.60	   61.15
     20.9125	   48.00	   63.45	 -485.45	   61.00
     20.9459	   60.00	   63.30	 -473.30	   60.85
     20.9793	   76.00	   63.15	 -457.15	   60.70
     21.0127	   73.00	   63.00	 -460.00	   60.55
     21.0461	   47.00	   62.85	 -485.85	   60.41
     21.0796	   66.00	   62.70	 -466.70	   60.26
     21.1130	   52.00	   62.56	 -480.56	   60.11
     21.1464	   60.00	   62.41	 -472.41	   59.97
     21.1798	   61.00	   62.26	 -471.26	   59.82
     21.2133	   62.00	   62.11	 -470.11	   59.67
     21.2467	   64.00	   61.97	 -467.97	   59.53
     21.2801	   56.00	   61.82	 -475.82	   59.38
     21.3135	   65.00	   61.68	 -466.68	   59.24
     21.3470	   47.00	   61.53	 -484.53	   59.09
     21.3804	   71.00	   61.39	 -460.39	   58.95
     21.4138	   57.00	   61.21	 -474.21	   58.81
     21.4472	   58.00	   61.07	 -473.07	   58.66
     21.4806	   56.00	   60.93	 -474.93	   58.52
     21.5141	   62.00	   60.78	 -468.78	   58.38
     21.5475	   63.00	   60.64	 -467.64	   58.23
     21.5809	   63.00	   60.50	 -467.50	   58.09
     21.6143	   68.00	   60.36	 -462.36	   57.95
     21.6478	   61.00	   60.21	 -469.21	   57.81
     21.6812	   51.00	   60.07	 -479.07	   57.67
     21.7146	   54.00	   59.93	 -475.93	   57.53
     21.7480	   60.00	   59.79	 -469.79	   57.39
     21.7814	   50.00	   59.65	 -479.65	   57.24
     21.8149	   46.00	   59.51	 -483.51	   57.10
     21.8483	   64.00	   59.37	 -465.37	   56.97
     21.8817	   74.00	   59.23	 -455.23	   56.83
     21.9151	   45.00	   59.09	 -484.09	   56.69
     21.9486	   64.00	   58.95	 -464.95	   56.55
     21.9820	   54.00	   58.82	 -474.82	   56.41
     22.0154	   56.00	   58.68	 -472.68	   56.27
     22.0488	   47.00	   58.54	 -481.54	   56.13
     22.0822	   52.00	   58.40	 -476.40	   56.00
     22.1157	   49.00	   58.26	 -479.26	   55.86
     22.1491	   51.00	   58.13	 -477.13	   55.72
     22.1825	   50.00	   57.99	 -477.99	   55.59
     22.2159	   52.00	   57.86	 -475.86	   55.45
     22.2494	   52.00	   57.72	 -475.72	   55.31
     22.2828	   31.00	   57.58	 -496.58	   55.18
     22.3162	   55.00	   57.45	 -472.45	   55.04
     22.3496	   56.00	   57.31	 -471.31	   54.91
     22.3830	   55.00	   57.18	 -472.18	   54.77
     22.4165	   61.00	   57.04	 -466.04	   54.64
     22.4499	   50.00	   56.91	 -476.91	   54.50
     22.4833	   54.00	   56.78	 -472.78	   54.37
     22.5167	   48.00	   56.64	 -478.64	   54.24
     22.5502	   59.00	   56.51	 -467.51	   54.10
     22.5836	   61.00	   56.38	 -465.38	   53.97
     22.6170	   51.00	   56.24	 -475.24	   53.84
     22.6504	   59.00	   56.11	 -467.11	   53.70
     22.6839	   44.00	   55.98	 -481.98	   53.57
     22.7173	   55.00	   55.85	 -470.85	   53.44
     22.7507	   52.00	   55.72	 -473.72	   53.31
     22.7841	   46.00	   55.58	 -479.58	   53.18
     22.8175	   49.00	   55.45	 -476.45	   53.05
     22.8510	   56.00	   55.32	 -469.32	   52.92
     22.8844	   60.00	   55.19	 -465.19	   52.79
     22.9178	   50.00	   55.06	 -475.06	   52.66
     22.9512	   64.00	   54.93	 -460.93	   52.53
     22.9847	   51.00	   54.80	 -473.80	   52.40
     23.0181	   55.00	   54.68	 -469.68	   52.27
     23.0515	   39.00	   54.55	 -485.55	   52.14
     23.0849	   42.00	   54.42	 -482.42	   52.01
     23.1183	   37.00	   54.29	 -487.29	   51.88
     23.1518	   49.00	   54.16	 -475.16	   51.76
     23.1852	   51.00	   54.03	 -473.03	   51.63
     23.2186	   52.00	   53.91	 -471.91	   51.50
     23.2520	   50.00	   53.78	 -473.78	   51.37
     23.2855	   51.00	   53.65	 -472.65	   51.25
     23.3189	   52.00	   53.53	 -471.53	   51.12
     23.3523	   56.00	   53.40	 -467.40	   50.99
     23.3857	   55.00	   53.27	 -468.27	   50.87
