 Fe3O4   Chi2:  1.3997  CELL:    8.39922   8.39922   8.39922   90.0000   90.0000   90.0000   SPGR: 227:1                  TEMP:      0.00
  1   2693     1.54060     1.54439     0.00000     0.01122     0.00000    0
    60     0     1
       0.00000      28.00000
 2Theta	Yobs	Ycal	Yobs-Ycal	Backg	Posr	(hkl)	K
     10.0167	 1286.00	  662.00	-1078.25	  630.52
     10.0501	 1279.00	  662.00	-1078.25	  630.52
     10.0836	 1291.00	  662.00	-1078.25	  630.52
     10.1170	 1281.00	  662.00	-1078.25	  630.52
     10.1504	 1345.00	  662.00	-1078.25	  630.52
     10.1838	 1305.00	  662.00	-1078.25	  630.52
     10.2172	 1293.00	  662.00	-1078.25	  630.52
     10.2507	 1307.00	  662.00	-1078.25	  630.52
     10.2841	 1282.00	  662.00	-1078.25	  630.52
     10.3175	 1325.00	  662.00	-1078.25	  630.52
     10.3509	 1371.00	  662.00	-1078.25	  630.52
     10.3844	 1316.00	  662.00	-1078.25	  630.52
     10.4178	 1379.00	  662.00	-1078.25	  630.52
     10.4512	 1428.00	  662.00	-1078.25	  630.52
     10.4846	 1366.00	  662.00	-1078.25	  630.52
     10.5180	 1411.00	  662.00	-1078.25	  630.52
     10.5515	 1317.00	  662.00	-1078.25	  630.52
     10.5849	 1401.00	  662.00	-1078.25	  630.52
     10.6183	 1314.00	  662.00	-1078.25	  630.52
     10.6517	 1267.00	  662.00	-1078.25	  630.52
     10.6852	 1385.00	  662.00	-1078.25	  630.52
     10.7186	 1264.00	  662.00	-1078.25	  630.52
     10.7520	 1340.00	  662.00	-1078.25	  630.52
     10.7854	 1316.00	  662.00	-1078.25	  630.52
     10.8189	 1395.00	  662.00	-1078.25	  630.52
     10.8523	 1334.00	  662.00	-1078.25	  630.52
     10.8857	 1362.00	  662.00	-1078.25	  630.52
     10.9191	 1376.00	  662.00	-1078.25	  630.52
     10.9525	 1389.00	  662.00	-1078.25	  630.52
     10.9860	 1361.00	  662.00	-1078.25	  630.52
     11.0194	 1408.00	  662.00	-1078.25	  630.52
     11.0528	 1474.00	  662.00	-1078.25	  630.52
     11.0862	 1384.00	  662.00	-1078.25	  630.52
     11.1197	 1409.00	  662.00	-1078.25	  630.52
     11.1531	 1447.00	  662.00	-1078.25	  630.52
     11.1865	 1387.00	  662.00	-1078.25	  630.52
     11.2199	 1495.00	  662.00	-1078.25	  630.52
     11.2533	 1426.00	  662.00	-1078.25	  630.52
     11.2868	 1417.00	  662.00	-1078.25	  630.52
     11.3202	 1419.00	  662.00	-1078.25	  630.52
     11.3536	 1403.00	  662.00	-1078.25	  630.52
     11.3870	 1521.00	  662.00	-1078.25	  630.52
     11.4205	 1510.00	  662.00	-1078.25	  630.52
     11.4539	 1512.00	  662.00	-1078.25	  630.52
     11.4873	 1412.00	  662.00	-1078.25	  630.52
     11.5207	 1472.00	  662.00	-1078.25	  630.52
     11.5541	 1509.00	  662.00	-1078.25	  630.52
     11.5876	 1562.00	  662.00	-1078.25	  630.52
     11.6210	 1482.00	  662.00	-1078.25	  630.52
     11.6544	 1515.00	  662.00	-1078.25	  630.52
     11.6878	 1489.00	  662.00	-1078.25	  630.52
     11.7213	 1459.00	  662.00	-1078.25	  630.52
     11.7547	 1549.00	  662.00	-1078.25	  630.52
     11.7881	 1563.00	  662.00	-1078.25	  630.52
     11.8215	 1479.00	  662.00	-1078.25	  630.52
     11.8550	 1524.00	  662.00	-1078.25	  630.52
     11.8884	 1547.00	  662.00	-1078.25	  630.52
     11.9218	 1526.00	  662.00	-1078.25	  630.52
     11.9552	 1522.00	  662.00	-1078.25	  630.52
     11.9886	 1558.00	  662.00	-1078.25	  630.52
     12.0221	 1562.00	  662.00	-1078.25	  630.52
     12.0555	 1526.00	  662.00	-1078.25	  630.52
     12.0889	 1584.00	  662.00	-1078.25	  630.52
     12.1223	 1606.00	  662.00	-1078.25	  630.52
     12.1558	 1559.00	  662.00	-1078.25	  630.52
     12.1892	 1581.00	  662.00	-1078.25	  630.52
     12.2226	 1611.00	  662.00	-1078.25	  630.52
     12.2560	 1671.00	  662.00	-1078.25	  630.52
     12.2894	 1681.00	  662.00	-1078.25	  630.52
     12.3229	 1735.00	  662.00	-1078.25	  630.52
     12.3563	 1648.00	  662.00	-1078.25	  630.52
     12.3897	 1732.00	  662.00	-1078.25	  630.52
     12.4231	 1702.00	  662.00	-1078.25	  630.52
     12.4566	 1650.00	  662.00	-1078.25	  630.52
     12.4900	 1639.00	  662.00	-1078.25	  630.52
     12.5234	 1646.00	  662.00	-1078.25	  630.52
     12.5568	 1691.00	  662.00	-1078.25	  630.52
     12.5902	 1711.00	  662.00	-1078.25	  630.52
     12.6237	 1681.00	  662.00	-1078.25	  630.52
     12.6571	 1638.00	  662.00	-1078.25	  630.52
     12.6905	 1726.00	  662.00	-1078.25	  630.52
     12.7239	 1849.00	  662.00	-1078.25	  630.52
     12.7574	 1772.00	  662.00	-1078.25	  630.52
     12.7908	 1774.00	  662.00	-1078.25	  630.52
     12.8242	 1784.00	  662.00	-1078.25	  630.52
     12.8576	 1750.00	  662.00	-1078.25	  630.52
     12.8910	 1816.00	  662.00	-1078.25	  630.52
     12.9245	 1839.00	  662.00	-1078.25	  630.52
     12.9579	 1759.00	  662.00	-1078.25	  630.52
     12.9913	 1781.00	  662.00	-1078.25	  630.52
     13.0247	 1785.00	  662.00	-1078.25	  630.52
     13.0582	 1837.00	  662.00	-1078.25	  630.52
     13.0916	 1739.00	  662.00	-1078.25	  630.52
     13.1250	 1883.00	  662.00	-1078.25	  630.52
     13.1584	 1854.00	  662.00	-1078.25	  630.52
     13.1919	 1856.00	  662.00	-1078.25	  630.52
     13.2253	 1909.00	  662.00	-1078.25	  630.52
     13.2587	 1905.00	  662.00	-1078.25	  630.52
     13.2921	 1919.00	  662.00	-1078.25	  630.52
     13.3255	 1888.00	  662.00	-1078.25	  630.52
     13.3590	 1952.00	  662.00	-1078.25	  630.52
     13.3924	 1991.00	  662.00	-1078.25	  630.52
     13.4258	 1953.00	  662.00	-1078.25	  630.52
     13.4592	 1990.00	  662.00	-1078.25	  630.52
     13.4927	 1990.00	  662.00	-1078.25	  630.52
     13.5261	 1915.00	  662.00	-1078.25	  630.52
     13.5595	 2095.00	  662.00	-1078.25	  630.52
     13.5929	 1951.00	  662.00	-1078.25	  630.52
     13.6263	 1880.00	  662.00	-1078.25	  630.52
     13.6598	 2023.00	  662.00	-1078.25	  630.52
     13.6932	 1959.00	  662.00	-1078.25	  630.52
     13.7266	 2030.00	  662.00	-1078.25	  630.52
     13.7600	 2088.00	  662.00	-1078.25	  630.52
     13.7935	 2027.00	  662.00	-1078.25	  630.52
     13.8269	 2105.00	  662.00	-1078.25	  630.52
     13.8603	 2176.00	  662.00	-1078.25	  630.52
     13.8937	 2050.00	  662.00	-1078.25	  630.52
     13.9271	 2132.00	  662.00	-1078.25	  630.52
     13.9606	 2128.00	  662.00	-1078.25	  630.52
     13.9940	 2159.00	  662.00	-1078.25	  630.52
     14.0274	 2241.00	  662.00	-1078.25	  630.52
     14.0608	 2255.00	  662.00	-1078.25	  630.52
     14.0943	 2166.00	  662.00	-1078.25	  630.52
     14.1277	 2130.00	  662.00	-1078.25	  630.52
     14.1611	 2114.00	  662.00	-1078.25	  630.52
     14.1945	 2286.00	  662.00	-1078.25	  630.52
     14.2280	 2216.00	  662.00	-1078.25	  630.52
     14.2614	 2285.00	  662.00	-1078.25	  630.52
     14.2948	 2290.00	  662.00	-1078.25	  630.52
     14.3282	 2234.00	  662.00	-1078.25	  630.52
     14.3616	 2339.00	  662.00	-1078.25	  630.52
     14.3951	 2344.00	  662.00	-1078.25	  630.52
     14.4285	 2349.00	  662.00	-1078.25	  630.52
     14.4619	 2418.00	  662.00	-1078.25	  630.52
     14.4953	 2415.00	  662.00	-1078.25	  630.52
     14.5288	 2471.00	  662.00	-1078.25	  630.52
     14.5622	 2388.00	  662.00	-1078.25	  630.52
     14.5956	 2516.00	  662.00	-1078.25	  630.52
     14.6290	 2418.00	  662.00	-1078.25	  630.52
     14.6624	 2376.00	  662.00	-1078.25	  630.52
     14.6959	 2445.00	  662.00	-1078.25	  630.52
     14.7293	 2465.00	  662.00	-1078.25	  630.52
     14.7627	 2516.00	  662.00	-1078.25	  630.52
     14.7961	 2445.00	  662.00	-1078.25	  630.52
     14.8296	 2411.00	  662.00	-1078.25	  630.52
     14.8630	 2609.00	  662.00	-1078.25	  630.52
     14.8964	 2572.00	  662.00	-1078.25	  630.52
     14.9298	 2556.00	  662.00	-1078.25	  630.52
     14.9632	 2544.00	  662.00	-1078.25	  630.52
     14.9967	 2577.00	  662.00	-1078.25	  630.52
     15.0301	 2607.00	  662.00	-1078.25	  630.52
     15.0635	 2677.00	  662.00	-1078.25	  630.52
     15.0969	 2711.00	  662.00	-1078.25	  630.52
     15.1304	 2655.00	  662.00	-1078.25	  630.52
     15.1638	 2696.00	  662.00	-1078.25	  630.52
     15.1972	 2684.00	  662.00	-1078.25	  630.52
     15.2306	 2662.00	  662.00	-1078.25	  630.52
     15.2640	 2756.00	  662.00	-1078.25	  630.52
     15.2975	 2709.00	  662.00	-1078.25	  630.52
     15.3309	 2787.00	  662.00	-1078.25	  630.52
     15.3643	 2823.00	  662.00	-1078.25	  630.52
     15.3977	 2803.00	  662.00	-1078.25	  630.52
     15.4312	 2852.00	  662.00	-1078.25	  630.52
     15.4646	 2838.00	  662.00	-1078.25	  630.52
     15.4980	 2916.00	  662.00	-1078.25	  630.52
     15.5314	 2980.00	  662.00	-1078.25	  630.52
     15.5649	 2831.00	  662.00	-1078.25	  630.52
     15.5983	 2884.00	  662.00	-1078.25	  630.52
     15.6317	 2920.00	  662.00	-1078.25	  630.52
     15.6651	 2963.00	  662.00	-1078.25	  630.52
     15.6985	 2970.00	  662.00	-1078.25	  630.52
     15.7320	 3028.00	  662.00	-1078.25	  630.52
     15.7654	 2961.00	  662.00	-1078.25	  630.52
     15.7988	 3003.00	  662.00	-1078.25	  630.52
     15.8322	 3045.00	  662.00	-1078.25	  630.52
     15.8657	 3098.00	  662.00	-1078.25	  630.52
     15.8991	 3037.00	  662.00	-1078.25	  630.52
     15.9325	 3129.00	  662.00	-1078.25	  630.52
     15.9659	 3179.00	  662.00	-1078.25	  630.52
     15.9993	 3062.00	  662.00	-1078.25	  630.52
     16.0328	 3032.00	  662.00	-1078.25	  630.52
     16.0662	 3232.00	  662.00	-1078.25	  630.52
     16.0996	 3182.00	  662.00	-1078.25	  630.52
     16.1330	 3405.00	  662.00	-1078.25	  630.52
     16.1665	 3371.00	  662.00	-1078.25	  630.52
     16.1999	 3319.00	  662.00	-1078.25	  630.52
     16.2333	 3277.00	  662.00	-1078.25	  630.52
     16.2667	 3292.00	  662.00	-1078.25	  630.52
     16.3001	 3233.00	  662.00	-1078.25	  630.52
     16.3336	 3335.00	  662.00	-1078.25	  630.52
     16.3670	 3390.00	  662.00	-1078.25	  630.52
     16.4004	 3382.00	  662.00	-1078.25	  630.52
     16.4338	 3543.00	  662.00	-1078.25	  630.52
     16.4673	 3355.00	  662.00	-1078.25	  630.52
     16.5007	 3482.00	  662.00	-1078.25	  630.52
     16.5341	 3533.00	  662.00	-1078.25	  630.52
     16.5675	 3440.00	  662.00	-1078.25	  630.52
     16.6010	 3554.00	  662.00	-1078.25	  630.52
     16.6344	 3510.00	  662.00	-1078.25	  630.52
     16.6678	 3580.00	  662.00	-1078.25	  630.52
     16.7012	 3500.00	  662.00	-1078.25	  630.52
     16.7346	 3653.00	  662.00	-1078.25	  630.52
     16.7681	 3405.00	  662.00	-1078.25	  630.52
     16.8015	 3516.00	  662.00	-1078.25	  630.52
     16.8349	 3571.00	  662.00	-1078.25	  630.52
     16.8683	 3618.00	  662.00	-1078.25	  630.52
     16.9018	 3748.00	  662.00	-1078.25	  630.52
     16.9352	 3641.00	  662.00	-1078.25	  630.52
     16.9686	 3753.00	  662.00	-1078.25	  630.52
     17.0020	 3662.00	  662.00	-1078.25	  630.52
     17.0354	 3595.00	  662.00	-1078.25	  630.52
     17.0689	 3696.00	  662.00	-1078.25	  630.52
     17.1023	 3679.00	  662.00	-1078.25	  630.52
     17.1357	 3677.00	  662.00	-1078.25	  630.52
     17.1691	 3677.00	  662.00	-1078.25	  630.52
     17.2026	 3756.00	  662.00	-1078.25	  630.52
     17.2360	 3690.00	  662.00	-1078.25	  630.52
     17.2694	 3804.00	  662.00	-1078.25	  630.52
     17.3028	 3794.00	  662.00	-1078.25	  630.52
     17.3362	 3725.00	  662.00	-1078.25	  630.52
     17.3697	 3759.00	  662.00	-1078.25	  630.52
     17.4031	 3819.00	  662.00	-1078.25	  630.52
     17.4365	 3894.00	  662.00	-1078.25	  630.52
     17.4699	 3781.00	  662.00	-1078.25	  630.52
     17.5034	 3839.00	  662.00	-1078.25	  630.52
     17.5368	 3824.00	  662.00	-1078.25	  630.52
     17.5702	 3873.00	  662.00	-1078.25	  630.52
     17.6036	 3901.00	  662.00	-1078.25	  630.52
     17.6371	 3830.00	  662.00	-1078.25	  630.52
     17.6705	 3847.00	  662.00	-1078.25	  630.52
     17.7039	 3856.00	  662.00	-1078.25	  630.52
     17.7373	 3858.00	  662.00	-1078.25	  630.52
     17.7707	 3786.00	  662.00	-1078.25	  630.52
     17.8042	 3909.00	  662.00	-1078.25	  630.52
     17.8376	 3922.00	  662.00	-1078.25	  630.52
     17.8710	 3937.00	  662.00	-1078.25	  630.52
     17.9044	 3908.00	  662.00	-1078.25	  630.52
     17.9379	 4001.00	  662.00	-1078.25	  630.52
     17.9713	 4049.00	  662.00	-1078.25	  630.52
     18.0047	 3922.00	  662.00	-1078.25	  630.52
     18.0381	 3911.00	  662.00	-1078.25	  630.52
     18.0715	 4053.00	  662.00	-1078.25	  630.52
     18.1050	 4010.00	  662.00	-1078.25	  630.52
     18.1384	 4071.00	  662.00	-1078.25	  630.52
     18.1718	 4154.00	  662.00	-1078.25	  630.52
     18.2052	 4014.00	  662.00	-1078.25	  630.52
     18.2387	 4138.00	  662.00	-1078.25	  630.52
     18.2721	 4183.00	  662.00	-1078.25	  630.52
     18.3055	 4110.00	  662.00	-1078.25	  630.52
     18.3389	 4313.00	  662.00	-1078.25	  630.52
     18.3723	 4080.00	  662.00	-1078.25	  630.52
     18.4058	 4067.00	  662.00	-1078.25	  630.52
     18.4392	 3996.00	  662.00	-1078.25	  630.52
     18.4726	 3989.00	  662.00	-1078.25	  630.52
     18.5060	 3960.00	  662.00	-1078.25	  630.52
     18.5395	 3966.00	  662.00	-1078.25	  630.52
     18.5729	 3868.00	  662.00	-1078.25	  630.52
     18.6063	 3803.00	  662.00	-1078.25	  630.52
     18.6397	 3884.00	  662.00	-1078.25	  630.52
     18.6731	 3674.00	  662.00	-1078.25	  630.52
     18.7066	 3740.00	  662.00	-1078.25	  630.52
     18.7400	 3739.00	  662.00	-1078.25	  630.52
     18.7734	 3797.00	  662.00	-1078.25	  630.52
     18.8068	 3769.00	  662.00	-1078.25	  630.52
     18.8403	 3803.00	  662.00	-1078.25	  630.52
     18.8737	 3780.00	  662.00	-1078.25	  630.52
     18.9071	 3711.00	  662.00	-1078.25	  630.52
     18.9405	 3668.00	  662.00	-1078.25	  630.52
     18.9740	 3682.00	  662.00	-1078.25	  630.52
     19.0074	 3643.00	  662.00	-1078.25	  630.52
     19.0408	 3589.00	  662.00	-1078.25	  630.52
     19.0742	 3627.00	  662.00	-1078.25	  630.52
     19.1076	 3534.00	  662.00	-1078.25	  630.52
     19.1411	 3608.00	  662.00	-1078.25	  630.52
     19.1745	 3492.00	  662.00	-1078.25	  630.52
     19.2079	 3443.00	  662.00	-1078.25	  630.52
     19.2413	 3359.00	  662.00	-1078.25	  630.52
     19.2748	 3426.00	  662.00	-1078.25	  630.52
     19.3082	 3489.00	  662.00	-1078.25	  630.52
     19.3416	 3359.00	  662.00	-1078.25	  630.52
     19.3750	 3338.00	  662.00	-1078.25	  630.52
     19.4084	 3427.00	  662.00	-1078.25	  630.52
     19.4419	 3324.00	  662.00	-1078.25	  630.52
     19.4753	 3383.00	  662.00	-1078.25	  630.52
     19.5087	 3337.00	  662.00	-1078.25	  630.52
     19.5421	 3177.00	  662.00	-1078.25	  630.52
     19.5756	 3250.00	  662.00	-1078.25	  630.52
     19.6090	 3247.00	  662.00	-1078.25	  630.52
     19.6424	 3132.00	  662.00	-1078.25	  630.52
     19.6758	 3143.00	  662.00	-1078.25	  630.52
     19.7092	 3238.00	  662.00	-1078.25	  630.52
     19.7427	 3182.00	  662.00	-1078.25	  630.52
     19.7761	 3092.00	  662.00	-1078.25	  630.52
     19.8095	 3083.00	  662.00	-1078.25	  630.52
     19.8429	 2953.00	  662.00	-1078.25	  630.52
     19.8764	 3035.00	  662.00	-1078.25	  630.52
     19.9098	 3079.00	  662.00	-1078.25	  630.52
     19.9432	 3011.00	  662.00	-1078.25	  630.52
     19.9766	 3038.00	  662.00	-1078.25	  630.52
     20.0100	 2959.00	  662.00	-1078.25	  630.52
     20.0435	 2972.00	  662.00	-1078.25	  630.52
     20.0769	 2877.00	  662.00	-1078.25	  630.52
     20.1103	 2883.00	  662.00	-1078.25	  630.52
     20.1437	 2855.00	  662.00	-1078.25	  630.52
     20.1772	 2856.00	  662.00	-1078.25	  630.52
     20.2106	 2760.00	  662.00	-1078.25	  630.52
     20.2440	 2734.00	  662.00	-1078.25	  630.52
     20.2774	 2722.00	  662.00	-1078.25	  630.52
     20.3109	 2772.00	  662.00	-1078.25	  630.52
     20.3443	 2762.00	  662.00	-1078.25	  630.52
     20.3777	 2694.00	  662.00	-1078.25	  630.52
     20.4111	 2612.00	  662.00	-1078.25	  630.52
     20.4445	 2605.00	  662.00	-1078.25	  630.52
     20.4780	 2505.00	  662.00	-1078.25	  630.52
     20.5114	 2657.00	  662.00	-1078.25	  630.52
     20.5448	 2638.00	  662.00	-1078.25	  630.52
     20.5782	 2489.00	  662.00	-1078.25	  630.52
     20.6117	 2646.00	  662.00	-1078.25	  630.52
     20.6451	 2510.00	  662.00	-1078.25	  630.52
     20.6785	 2431.00	  662.00	-1078.25	  630.52
     20.7119	 2496.00	  662.00	-1078.25	  630.52
     20.7453	 2466.00	  662.00	-1078.25	  630.52
     20.7788	 2381.00	  662.00	-1078.25	  630.52
     20.8122	 2448.00	  662.00	-1078.25	  630.52
     20.8456	 2378.00	  662.00	-1078.25	  630.52
     20.8790	 2455.00	  662.00	-1078.25	  630.52
     20.9125	 2320.00	  662.00	-1078.25	  630.52
     20.9459	 2276.00	  662.00	-1078.25	  630.52
     20.9793	 2233.00	  662.00	-1078.25	  630.52
     21.0127	 2228.00	  662.00	-1078.25	  630.52
     21.0461	 2267.00	  662.00	-1078.25	  630.52
     21.0796	 2242.00	  662.00	-1078.25	  630.52
     21.1130	 2240.00	  662.00	-1078.25	  630.52
     21.1464	 2191.00	  662.00	-1078.25	  630.52
     21.1798	 2200.00	  662.00	-1078.25	  630.52
     21.2133	 2112.00	  662.00	-1078.25	  630.52
     21.2467	 2120.00	  662.00	-1078.25	  630.52
     21.2801	 2087.00	  662.00	-1078.25	  630.52
     21.3135	 2012.00	  662.00	-1078.25	  630.52
     21.3470	 2049.00	  662.00	-1078.25	  630.52
     21.3804	 2030.00	  662.00	-1078.25	  630.52
     21.4138	 2083.00	  662.00	-1078.25	  630.52
     21.4472	 1894.00	  662.00	-1078.25	  630.52
     21.4806	 2028.00	  662.00	-1078.25	  630.52
     21.5141	 1946.00	  662.00	-1078.25	  630.52
     21.5475	 1944.00	  662.00	-1078.25	  630.52
     21.5809	 1896.00	  662.00	-1078.25	  630.52
     21.6143	 1875.00	  662.00	-1078.25	  630.52
     21.6478	 1830.00	  662.00	-1078.25	  630.52
     21.6812	 1818.00	  662.00	-1078.25	  630.52
     21.7146	 1916.00	  662.00	-1078.25	  630.52
     21.7480	 1805.00	  662.00	-1078.25	  630.52
     21.7814	 1918.00	  662.00	-1078.25	  630.52
     21.8149	 1907.00	  662.00	-1078.25	  630.52
     21.8483	 1792.00	  662.00	-1078.25	  630.52
     21.8817	 1789.00	  662.00	-1078.25	  630.52
     21.9151	 1762.00	  662.00	-1078.25	  630.52
     21.9486	 1747.00	  662.00	-1078.25	  630.52
     21.9820	 1789.00	  662.00	-1078.25	  630.52
     22.0154	 1708.00	  662.00	-1078.25	  630.52
     22.0488	 1712.00	  662.00	-1078.25	  630.52
     22.0822	 1718.00	  662.00	-1078.25	  630.52
     22.1157	 1752.00	  662.00	-1078.25	  630.52
     22.1491	 1667.00	  662.00	-1078.25	  630.52
     22.1825	 1673.00	  662.00	-1078.25	  630.52
     22.2159	 1651.00	  662.00	-1078.25	  630.52
     22.2494	 1573.00	  662.00	-1078.25	  630.52
     22.2828	 1564.00	  662.00	-1078.25	  630.52
     22.3162	 1558.00	  662.00	-1078.25	  630.52
     22.3496	 1558.00	  662.00	-1078.25	  630.52
     22.3830	 1599.00	  662.00	-1078.25	  630.52
     22.4165	 1634.00	  662.00	-1078.25	  630.52
     22.4499	 1551.00	  662.00	-1078.25	  630.52
     22.4833	 1485.00	  662.00	-1078.25	  630.52
     22.5167	 1534.00	  662.00	-1078.25	  630.52
     22.5502	 1495.00	  662.00	-1078.25	  630.52
     22.5836	 1470.00	  662.00	-1078.25	  630.52
     22.6170	 1501.00	  662.00	-1078.25	  630.52
     22.6504	 1489.00	  662.00	-1078.25	  630.52
     22.6839	 1529.00	  662.00	-1078.25	  630.52
     22.7173	 1438.00	  662.00	-1078.25	  630.52
     22.7507	 1412.00	  662.00	-1078.25	  630.52
     22.7841	 1365.00	  662.00	-1078.25	  630.52
     22.8175	 1434.00	  662.00	-1078.25	  630.52
     22.8510	 1422.00	  662.00	-1078.25	  630.52
     22.8844	 1417.00	  662.00	-1078.25	  630.52
     22.9178	 1436.00	  662.00	-1078.25	  630.52
     22.9512	 1386.00	  662.00	-1078.25	  630.52
     22.9847	 1389.00	  662.00	-1078.25	  630.52
     23.0181	 1322.00	  662.00	-1078.25	  630.52
     23.0515	 1383.00	  662.00	-1078.25	  630.52
     23.0849	 1357.00	  662.00	-1078.25	  630.52
     23.1183	 1311.00	  662.00	-1078.25	  630.52
     23.1518	 1263.00	  662.00	-1078.25	  630.52
     23.1852	 1281.00	  662.00	-1078.25	  630.52
     23.2186	 1292.00	  662.00	-1078.25	  630.52
     23.2520	 1340.00	  662.00	-1078.25	  630.52
     23.2855	 1201.00	  662.00	-1078.25	  630.52
     23.3189	 1327.00	  662.00	-1078.25	  630.52
     23.3523	 1251.00	  662.00	-1078.25	  630.52
     23.3857	 1225.00	  662.00	-1078.25	  630.52
