 Fe3O4   Chi2:  1.7464  CELL:    8.39312   8.39312   8.39312   90.0000   90.0000   90.0000   SPGR: 227:1                  TEMP:      0.00
  1   2543     1.54060     1.54439     0.00000     0.06871     0.00000    0
    90     0     1
       0.00000      15.00000
 2Theta	Yobs	Ycal	Yobs-Ycal	Backg	Posr	(hkl)	K
     15.0232	  239.00	  221.72	 -253.47	  214.29
     15.0566	  240.00	  221.73	 -252.48	  214.29
     15.0901	  215.00	  221.75	 -277.50	  214.29
     15.1235	  248.00	  221.76	 -244.51	  214.29
     15.1569	  212.00	  221.78	 -280.53	  214.29
     15.1903	  242.00	  222.10	 -250.85	  214.59
     15.2237	  218.00	  221.04	 -273.79	  213.52
     15.2572	  209.00	  219.99	 -281.74	  212.45
     15.2906	  243.00	  218.93	 -246.68	  211.38
     15.3240	  229.00	  217.88	 -259.63	  210.31
     15.3574	  228.00	  216.83	 -259.58	  209.24
     15.3909	  211.00	  215.77	 -275.52	  208.17
     15.4243	  233.00	  214.72	 -252.47	  207.10
     15.4577	  207.00	  213.67	 -277.42	  206.03
     15.4911	  212.00	  212.62	 -271.37	  204.96
     15.5245	  224.00	  211.57	 -258.32	  203.89
     15.5580	  203.00	  210.52	 -278.27	  202.82
     15.5914	  241.00	  209.47	 -239.22	  201.75
     15.6248	  232.00	  208.43	 -247.18	  200.68
     15.6582	  220.00	  207.38	 -258.13	  199.61
     15.6917	  203.00	  206.33	 -274.08	  198.54
     15.7251	  195.00	  205.29	 -281.04	  197.47
     15.7585	  214.00	  204.25	 -261.00	  196.40
     15.7919	  209.00	  203.20	 -264.95	  195.33
     15.8254	  222.00	  202.16	 -250.91	  194.26
     15.8588	  207.00	  201.12	 -264.87	  193.19
     15.8922	  206.00	  200.08	 -264.83	  192.12
     15.9256	  197.00	  199.04	 -272.79	  191.05
     15.9590	  210.00	  198.01	 -258.76	  189.98
     15.9925	  209.00	  196.97	 -258.72	  188.91
     16.0259	  219.00	  195.94	 -247.69	  187.84
     16.0593	  178.00	  194.90	 -287.65	  186.77
     16.0927	  209.00	  193.87	 -255.62	  185.70
     16.1262	  195.00	  192.84	 -268.59	  184.63
     16.1596	  175.00	  191.82	 -287.57	  183.56
     16.1930	  204.00	  190.79	 -257.54	  182.49
     16.2264	  186.00	  189.77	 -274.52	  181.42
     16.2598	  227.00	  188.75	 -232.50	  180.35
     16.2933	  208.00	  187.73	 -250.48	  179.28
     16.3267	  184.00	  186.88	 -273.63	  178.38
     16.3601	  190.00	  186.25	 -267.00	  177.69
     16.3935	  187.00	  185.62	 -269.37	  177.01
     16.4270	  220.00	  184.99	 -235.74	  176.32
     16.4604	  182.00	  184.37	 -273.12	  175.63
     16.4938	  178.00	  183.75	 -276.50	  174.94
     16.5272	  204.00	  183.14	 -249.89	  174.26
     16.5606	  196.00	  182.52	 -257.27	  173.57
     16.5941	  170.00	  181.92	 -282.67	  172.88
     16.6275	  154.00	  181.31	 -298.06	  172.19
     16.6609	  180.00	  180.72	 -271.47	  171.50
     16.6943	  210.00	  180.12	 -240.87	  170.82
     16.7278	  207.00	  179.53	 -243.28	  170.13
     16.7612	  198.00	  178.95	 -251.70	  169.44
     16.7946	  167.00	  178.38	 -282.13	  168.75
     16.8280	  203.00	  177.81	 -245.56	  168.06
     16.8615	  198.00	  177.25	 -250.00	  167.38
     16.8949	  154.00	  176.70	 -293.45	  166.69
     16.9283	  150.00	  176.16	 -296.91	  166.00
     16.9617	  187.00	  175.63	 -259.38	  165.31
     16.9951	  167.00	  175.11	 -278.86	  164.63
     17.0286	  158.00	  174.60	 -287.35	  163.94
     17.0620	  187.00	  174.10	 -257.85	  163.25
     17.0954	  164.00	  173.62	 -280.37	  162.56
     17.1288	  167.00	  173.15	 -276.90	  161.87
     17.1623	  165.00	  172.70	 -278.45	  161.19
     17.1957	  177.00	  172.28	 -266.03	  160.50
     17.2291	  203.00	  171.87	 -239.62	  159.81
     17.2625	  182.00	  171.48	 -260.23	  159.12
     17.2959	  191.00	  171.13	 -250.88	  158.44
     17.3294	  192.00	  170.80	 -249.55	  157.75
     17.3628	  179.00	  170.51	 -262.26	  157.06
     17.3962	  179.00	  170.25	 -262.00	  156.37
     17.4296	  180.00	  170.04	 -260.79	  155.68
     17.4631	  151.00	  169.87	 -289.62	  155.00
     17.4965	  178.00	  169.76	 -262.51	  154.31
     17.5299	  189.00	  169.71	 -251.46	  153.62
     17.5633	  186.00	  169.73	 -254.48	  152.93
     17.5967	  164.00	  169.84	 -276.59	  152.24
     17.6302	  183.00	  170.04	 -257.79	  151.56
     17.6636	  166.00	  170.35	 -275.10	  150.87
     17.6970	  185.00	  170.79	 -256.54	  150.18
     17.7304	  170.00	  171.39	 -272.14	  149.49
     17.7639	  168.00	  172.17	 -274.92	  148.81
     17.7973	  171.00	  173.16	 -272.91	  148.12
     17.8307	  172.00	  174.40	 -273.15	  147.43
     17.8641	  154.00	  175.95	 -292.70	  146.74
     17.8975	  181.00	  177.86	 -267.61	  146.05
     17.9310	  155.00	  180.19	 -295.94	  145.37
     17.9644	  154.00	  183.10	 -299.85	  144.77
     17.9978	  197.00	  186.72	 -260.47	  144.29
     18.0312	  182.00	  191.00	 -279.75	  143.81
     18.0647	  178.00	  196.04	 -288.79	  143.33
     18.0981	  162.00	  201.92	 -310.67	  142.85
     18.1315	  190.00	  208.67	 -289.42	  142.37
     18.1649	  187.00	  216.26	 -300.01	  141.89
     18.1984	  200.00	  224.54	 -295.29	  141.41
     18.2318	  204.00	  233.15	 -299.90	  140.93
     18.2652	  195.00	  241.52	 -317.27	  140.45
     18.2986	  195.00	  248.79	 -324.54	  139.97
     18.3320	  242.00	  254.00	 -282.75	  139.49
     18.3655	  207.00	  256.29	 -320.04	  139.01
     18.3989	  236.00	  255.20	 -289.95	  138.53
     18.4323	  240.00	  250.83	 -281.58	  138.05
     18.4657	  208.00	  243.83	 -306.58	  137.57
     18.4992	  191.00	  235.13	 -314.88	  137.09
     18.5326	  179.00	  225.65	 -317.40	  136.61
     18.5660	  187.00	  216.15	 -299.90	  136.13
     18.5994	  185.00	  207.14	 -292.89	  135.65
     18.6328	  207.00	  198.88	 -262.63	  135.17
     18.6663	  172.00	  191.48	 -290.23	  134.69
     18.6997	  183.00	  184.94	 -272.69	  134.21
     18.7331	  166.00	  179.21	 -283.96	  133.73
     18.7665	  142.00	  174.21	 -302.96	  133.25
     18.8000	  163.00	  169.84	 -277.59	  132.77
     18.8334	  152.00	  166.03	 -284.78	  132.29
     18.8668	  148.00	  162.69	 -285.44	  131.82
     18.9002	  160.00	  159.74	 -270.49	  131.34
     18.9336	  147.00	  157.14	 -280.89	  130.86
     18.9671	  151.00	  154.81	 -274.56	  130.38
     19.0005	  143.00	  152.73	 -280.48	  129.90
     19.0339	  136.00	  150.85	 -285.60	  129.42
     19.0673	  136.00	  149.14	 -283.89	  128.94
     19.1008	  125.00	  147.58	 -293.33	  128.46
     19.1342	  141.00	  146.14	 -275.89	  127.98
     19.1676	  131.00	  144.81	 -284.56	  127.50
     19.2010	  132.00	  143.57	 -282.32	  127.02
     19.2345	  150.00	  142.40	 -263.15	  126.54
     19.2679	  147.00	  141.31	 -265.06	  126.06
     19.3013	  141.00	  140.27	 -270.02	  125.58
     19.3347	  157.00	  139.28	 -253.03	  125.10
     19.3681	  146.00	  138.35	 -263.10	  124.62
     19.4016	  134.00	  137.45	 -274.20	  124.14
     19.4350	  117.00	  136.59	 -290.34	  123.66
     19.4684	  143.00	  135.76	 -263.51	  123.18
     19.5018	  131.00	  134.96	 -274.71	  122.70
     19.5353	  134.00	  134.18	 -270.93	  122.22
     19.5687	  147.00	  133.43	 -257.18	  121.74
     19.6021	  138.00	  132.70	 -265.45	  121.26
     19.6355	  123.00	  131.98	 -279.73	  120.78
     19.6689	  135.00	  131.30	 -267.05	  120.31
     19.7024	  137.00	  130.63	 -264.38	  119.85
     19.7358	  128.00	  129.98	 -272.73	  119.38
     19.7692	  129.00	  129.34	 -271.09	  118.91
     19.8026	  146.00	  128.71	 -253.46	  118.45
     19.8361	  125.00	  128.09	 -273.84	  117.98
     19.8695	  147.00	  127.48	 -251.23	  117.52
     19.9029	  165.00	  126.88	 -232.63	  117.05
     19.9363	  134.00	  126.29	 -263.04	  116.59
     19.9697	  124.00	  125.71	 -272.46	  116.12
     20.0032	  135.00	  125.13	 -260.88	  115.65
     20.0366	  108.00	  124.56	 -287.31	  115.19
     20.0700	  137.00	  123.99	 -257.74	  114.72
     20.1034	  137.00	  123.44	 -257.19	  114.26
     20.1369	  132.00	  122.88	 -261.63	  113.79
     20.1703	  151.00	  122.33	 -242.08	  113.32
     20.2037	  129.00	  121.79	 -263.54	  112.86
     20.2371	  111.00	  121.25	 -281.00	  112.39
     20.2705	  127.00	  120.71	 -264.46	  111.93
     20.3040	  105.00	  120.18	 -285.93	  111.46
     20.3374	  128.00	  119.65	 -262.40	  110.99
     20.3708	  136.00	  119.12	 -253.87	  110.53
     20.4042	  113.00	  118.60	 -276.35	  110.06
     20.4377	  129.00	  118.07	 -259.82	  109.60
     20.4711	  125.00	  117.56	 -263.31	  109.13
     20.5045	  103.00	  117.04	 -284.79	  108.66
     20.5379	  123.00	  116.53	 -264.28	  108.20
     20.5714	  134.00	  116.01	 -252.76	  107.73
     20.6048	  132.00	  115.50	 -254.25	  107.27
     20.6382	  141.00	  115.00	 -244.75	  106.80
     20.6716	  109.00	  114.49	 -276.24	  106.33
     20.7050	  121.00	  113.99	 -263.74	  105.87
     20.7385	  116.00	  113.48	 -268.23	  105.40
     20.7719	  110.00	  112.98	 -273.73	  104.94
     20.8053	  116.00	  112.48	 -267.23	  104.47
     20.8387	  124.00	  111.98	 -258.73	  104.00
     20.8722	  117.00	  111.49	 -265.24	  103.54
     20.9056	  119.00	  110.99	 -262.74	  103.07
     20.9390	  117.00	  110.50	 -264.25	  102.61
     20.9724	  132.00	  110.00	 -248.75	  102.14
     21.0058	  117.00	  109.51	 -263.26	  101.67
     21.0393	  111.00	  109.02	 -268.77	  101.21
     21.0727	   81.00	  108.53	 -298.28	  100.74
     21.1061	  121.00	  108.04	 -257.79	  100.28
     21.1395	   96.00	  107.55	 -282.30	   99.81
     21.1730	  106.00	  107.06	 -271.81	   99.34
     21.2064	  112.00	  106.57	 -265.32	   98.88
     21.2398	  109.00	  106.09	 -267.84	   98.41
     21.2732	   98.00	  105.60	 -278.35	   97.95
     21.3066	  131.00	  105.36	 -245.11	   97.48
     21.3401	  121.00	  104.87	 -254.62	   97.01
     21.3735	  116.00	  104.51	 -259.26	   96.55
     21.4069	  111.00	  104.03	 -263.78	   96.08
     21.4403	  106.00	  103.55	 -268.30	   95.62
     21.4738	  113.00	  103.16	 -260.91	   95.24
     21.5072	  112.00	  102.93	 -261.68	   95.02
     21.5406	  123.00	  102.70	 -250.45	   94.80
     21.5740	  117.00	  102.46	 -256.21	   94.58
     21.6075	  125.00	  102.23	 -247.98	   94.36
     21.6409	   98.00	  102.00	 -274.75	   94.14
     21.6743	  121.00	  101.77	 -251.52	   93.92
     21.7077	  100.00	  101.54	 -272.29	   93.70
     21.7411	  112.00	  101.31	 -260.06	   93.48
     21.7746	  123.00	  101.09	 -248.84	   93.26
     21.8080	  137.00	  100.86	 -234.61	   93.04
     21.8414	  118.00	  100.63	 -253.38	   92.82
     21.8748	  102.00	  100.40	 -269.15	   92.60
     21.9083	   98.00	  100.17	 -272.92	   92.39
     21.9417	   92.00	   99.95	 -278.70	   92.17
     21.9751	   95.00	   99.72	 -275.47	   91.95
     22.0085	  103.00	   99.50	 -267.25	   91.73
     22.0419	  102.00	   99.27	 -268.02	   91.51
     22.0754	  127.00	   99.04	 -242.79	   91.29
     22.1088	  105.00	   98.82	 -264.57	   91.07
     22.1422	  102.00	   98.59	 -267.34	   90.85
     22.1756	   98.00	   98.37	 -271.12	   90.63
     22.2091	  126.00	   98.14	 -242.89	   90.41
     22.2425	  113.00	   97.92	 -255.67	   90.19
     22.2759	  133.00	   97.70	 -235.45	   89.97
     22.3093	   94.00	   97.47	 -274.22	   89.75
     22.3427	  113.00	   97.25	 -255.00	   89.53
     22.3762	  103.00	   97.03	 -264.78	   89.31
     22.4096	  110.00	   96.80	 -257.55	   89.09
     22.4430	   98.00	   96.58	 -269.33	   88.87
     22.4764	   93.00	   96.36	 -274.11	   88.65
     22.5099	   91.00	   96.14	 -275.89	   88.43
     22.5433	  112.00	   95.91	 -254.66	   88.22
     22.5767	   96.00	   95.69	 -270.44	   88.00
     22.6101	   99.00	   95.47	 -267.22	   87.78
     22.6436	  103.00	   95.25	 -263.00	   87.56
     22.6770	  117.00	   95.03	 -248.78	   87.34
     22.7104	  124.00	   94.81	 -241.56	   87.12
     22.7438	  116.00	   94.59	 -249.34	   86.90
     22.7772	   81.00	   94.37	 -284.12	   86.68
     22.8107	   95.00	   94.15	 -269.90	   86.46
     22.8441	  110.00	   93.93	 -254.68	   86.24
     22.8775	  100.00	   93.71	 -264.46	   86.02
     22.9109	  113.00	   93.49	 -251.24	   85.80
     22.9444	   93.00	   93.27	 -271.02	   85.58
     22.9778	   89.00	   93.05	 -274.80	   85.36
     23.0112	   96.00	   92.83	 -267.58	   85.14
     23.0446	  104.00	   92.61	 -259.36	   84.92
     23.0780	  100.00	   92.39	 -263.14	   84.70
     23.1115	   96.00	   92.17	 -266.92	   84.48
     23.1449	   96.00	   91.95	 -266.70	   84.26
     23.1783	  102.00	   91.73	 -260.48	   84.05
     23.2117	  111.00	   91.52	 -251.27	   83.83
     23.2452	  103.00	   91.30	 -259.05	   83.61
     23.2786	   95.00	   91.08	 -266.83	   83.39
     23.3120	   85.00	   90.86	 -276.61	   83.17
     23.3454	  109.00	   90.64	 -252.39	   82.95
     23.3788	  102.00	   90.43	 -259.18	   82.73
     23.4123	  105.00	   90.21	 -255.96	   82.51
     23.4457	  113.00	   89.99	 -247.74	   82.29
     23.4791	  100.00	   89.78	 -260.53	   82.07
     23.5125	   73.00	   89.56	 -287.31	   81.85
     23.5460	  100.00	   89.34	 -260.09	   81.63
     23.5794	  100.00	   89.13	 -259.88	   81.41
     23.6128	   96.00	   88.91	 -263.66	   81.19
     23.6462	   97.00	   88.69	 -262.44	   80.97
     23.6796	  122.00	   88.48	 -237.23	   80.75
     23.7131	   93.00	   88.26	 -266.01	   80.53
     23.7465	   92.00	   88.05	 -266.80	   80.32
     23.7799	  108.00	   87.93	 -250.68	   80.19
     23.8133	   87.00	   87.80	 -271.55	   80.06
     23.8468	   98.00	   87.68	 -260.43	   79.93
     23.8802	  106.00	   87.55	 -252.30	   79.80
     23.9136	  108.00	   87.43	 -250.18	   79.67
     23.9470	   91.00	   87.30	 -267.05	   79.54
     23.9805	   85.00	   87.18	 -272.93	   79.41
     24.0139	  120.00	   87.05	 -237.80	   79.28
     24.0473	   99.00	   86.93	 -258.68	   79.15
     24.0807	   84.00	   86.80	 -273.55	   79.02
     24.1141	   80.00	   86.68	 -277.43	   78.89
     24.1476	   91.00	   86.56	 -266.31	   78.76
     24.1810	   98.00	   86.43	 -259.18	   78.63
     24.2144	   94.00	   86.31	 -263.06	   78.50
     24.2478	   92.00	   86.19	 -264.94	   78.37
     24.2813	  100.00	   86.06	 -256.81	   78.24
     24.3147	   91.00	   85.94	 -265.69	   78.11
     24.3481	   91.00	   85.82	 -265.57	   77.99
     24.3815	  120.00	   85.70	 -236.45	   77.86
     24.4149	   95.00	   85.57	 -261.32	   77.73
     24.4484	   99.00	   85.45	 -257.20	   77.60
     24.4818	   77.00	   85.33	 -279.08	   77.47
     24.5152	   89.00	   85.21	 -266.96	   77.34
     24.5486	   95.00	   85.09	 -260.84	   77.21
     24.5821	   63.00	   84.97	 -292.72	   77.08
     24.6155	   94.00	   84.85	 -261.60	   76.95
     24.6489	   96.00	   84.73	 -259.48	   76.82
     24.6823	   84.00	   84.61	 -271.36	   76.69
     24.7157	   82.00	   84.49	 -273.24	   76.56
     24.7492	   83.00	   84.37	 -272.12	   76.43
     24.7826	   70.00	   84.25	 -285.00	   76.30
     24.8160	   81.00	   84.13	 -273.88	   76.17
     24.8494	   77.00	   84.01	 -277.76	   76.04
     24.8829	   88.00	   83.89	 -266.64	   75.91
     24.9163	   80.00	   83.77	 -274.52	   75.78
     24.9497	  110.00	   83.65	 -244.40	   75.65
     24.9831	   73.00	   83.53	 -281.28	   75.52
     25.0166	   89.00	   83.42	 -265.17	   75.39
     25.0500	   88.00	   83.30	 -266.05	   75.26
     25.0834	   89.00	   83.18	 -264.93	   75.13
     25.1168	   87.00	   83.06	 -266.81	   75.00
     25.1502	   85.00	   82.95	 -268.70	   74.87
     25.1837	  105.00	   82.83	 -248.58	   74.74
     25.2171	   93.00	   82.72	 -260.47	   74.61
     25.2505	   74.00	   82.60	 -279.35	   74.48
     25.2839	   83.00	   82.49	 -270.24	   74.35
     25.3174	  104.00	   82.37	 -249.12	   74.22
     25.3508	   90.00	   82.26	 -263.01	   74.09
     25.3842	   76.00	   82.14	 -276.89	   73.96
     25.4176	   82.00	   82.03	 -270.78	   73.84
     25.4510	   81.00	   81.91	 -271.66	   73.71
     25.4845	   92.00	   81.80	 -260.55	   73.58
     25.5179	   69.00	   81.69	 -283.44	   73.45
     25.5513	   96.00	   81.58	 -256.33	   73.32
     25.5847	   85.00	   81.47	 -267.22	   73.19
     25.6182	   89.00	   81.35	 -263.10	   73.06
     25.6516	   73.00	   81.24	 -278.99	   72.93
     25.6850	   82.00	   81.14	 -269.89	   72.80
     25.7184	   95.00	   81.05	 -256.80	   72.70
     25.7518	   88.00	   80.97	 -263.72	   72.59
     25.7853	   95.00	   80.88	 -256.63	   72.48
     25.8187	   89.00	   80.79	 -262.54	   72.38
     25.8521	   94.00	   80.71	 -257.46	   72.27
     25.8855	   79.00	   80.62	 -272.37	   72.16
     25.9190	   71.00	   80.54	 -280.29	   72.05
     25.9524	   94.00	   80.46	 -257.21	   71.95
     25.9858	   81.00	   80.37	 -270.12	   71.84
     26.0192	   82.00	   80.29	 -269.04	   71.73
     26.0526	   80.00	   80.21	 -270.96	   71.63
     26.0861	   87.00	   80.13	 -263.88	   71.52
     26.1195	   78.00	   80.05	 -272.80	   71.41
     26.1529	   75.00	   79.97	 -275.72	   71.31
     26.1863	   91.00	   79.89	 -259.64	   71.20
     26.2198	   71.00	   79.81	 -279.56	   71.09
     26.2532	   78.00	   79.73	 -272.48	   70.98
     26.2866	   78.00	   79.66	 -272.41	   70.88
     26.3200	   78.00	   79.58	 -272.33	   70.77
     26.3535	   74.00	   79.51	 -276.26	   70.66
     26.3869	   83.00	   79.43	 -267.18	   70.56
     26.4203	   80.00	   79.36	 -270.11	   70.45
     26.4537	   94.00	   79.29	 -256.04	   70.34
     26.4871	   82.00	   79.22	 -267.97	   70.24
     26.5206	   68.00	   79.15	 -281.90	   70.13
     26.5540	   76.00	   79.99	 -274.74	   70.02
     26.5874	   68.00	   79.93	 -282.68	   69.91
     26.6208	   77.00	   80.32	 -274.07	   69.81
     26.6543	   80.00	   80.27	 -271.02	   69.70
     26.6877	   69.00	   80.22	 -281.97	   69.59
     26.7211	   95.00	   80.16	 -255.91	   69.49
     26.7545	   95.00	   80.11	 -255.86	   69.38
     26.7879	   70.00	   80.06	 -280.81	   69.27
     26.8214	   89.00	   80.01	 -261.76	   69.17
     26.8548	   73.00	   79.97	 -277.72	   69.06
     26.8882	   91.00	   79.92	 -259.67	   68.95
     26.9216	   66.00	   79.88	 -284.63	   68.85
     26.9551	   81.00	   79.84	 -269.59	   68.74
     26.9885	   85.00	   79.80	 -265.55	   68.63
     27.0219	   77.00	   79.76	 -273.51	   68.52
     27.0553	   82.00	   79.73	 -268.48	   68.42
     27.0887	   97.00	   79.69	 -253.44	   68.31
     27.1222	   80.00	   79.57	 -270.32	   68.20
     27.1556	   91.00	   79.54	 -259.29	   68.10
     27.1890	   95.00	   79.51	 -255.26	   67.99
     27.2224	   77.00	   79.49	 -273.24	   67.88
     27.2559	   76.00	   79.47	 -274.22	   67.78
     27.2893	   68.00	   79.45	 -282.20	   67.67
     27.3227	   98.00	   79.44	 -252.19	   67.56
     27.3561	   89.00	   79.42	 -261.17	   67.45
     27.3895	   87.00	   79.41	 -263.16	   67.35
     27.4230	   91.00	   79.41	 -259.16	   67.24
     27.4564	   90.00	   79.40	 -260.15	   67.13
     27.4898	   70.00	   79.40	 -280.15	   67.03
     27.5232	   87.00	   79.41	 -263.16	   66.92
     27.5567	   88.00	   79.42	 -262.17	   66.81
     27.5901	   81.00	   79.43	 -269.18	   66.71
     27.6235	   83.00	   79.45	 -267.20	   66.60
     27.6569	   62.00	   79.47	 -288.22	   66.49
     27.6904	   84.00	   79.49	 -266.24	   66.38
     27.7238	   84.00	   79.52	 -266.27	   66.28
     27.7572	   68.00	   79.60	 -282.35	   66.21
     27.7906	   80.00	   79.69	 -270.44	   66.15
     27.8240	   70.00	   79.78	 -280.53	   66.09
     27.8575	   92.00	   79.88	 -258.63	   66.03
     27.8909	   71.00	   79.98	 -279.73	   65.97
     27.9243	   84.00	   80.09	 -266.84	   65.90
     27.9577	   89.00	   80.21	 -261.96	   65.84
     27.9912	   85.00	   80.34	 -266.09	   65.78
     28.0246	   81.00	   80.47	 -270.22	   65.72
     28.0580	   84.00	   80.61	 -267.36	   65.66
     28.0914	   70.00	   80.77	 -281.52	   65.59
     28.1248	   69.00	   81.00	 -282.75	   65.53
     28.1583	   75.00	   81.17	 -276.92	   65.47
     28.1917	   82.00	   81.36	 -270.11	   65.41
     28.2251	   55.00	   81.59	 -297.34	   65.35
     28.2585	   78.00	   81.80	 -274.55	   65.28
     28.2920	   82.00	   82.02	 -270.77	   65.22
     28.3254	   66.00	   82.25	 -287.00	   65.16
     28.3588	   68.00	   82.50	 -285.25	   65.10
     28.3922	   85.00	   82.76	 -268.51	   65.04
