 Fe3O4   Chi2:  1.5992  CELL:    8.39777   8.39777   8.39777   90.0000   90.0000   90.0000   SPGR: 227:1                  TEMP:      0.00
  1   3142     1.54060     1.54439     0.00000    -0.02278     0.00000    0
    90     0     1
       0.00000      15.00000
 2Theta	Yobs	Ycal	Yobs-Ycal	Backg	Posr	(hkl)	K
     15.0031	  121.00	  136.67	 -368.92	  133.94
     15.0365	  158.00	  136.67	 -331.92	  133.94
     15.0700	  129.00	  136.67	 -360.92	  133.94
     15.1034	  157.00	  136.87	 -333.12	  134.13
     15.1368	  133.00	  136.37	 -356.62	  133.63
     15.1702	  156.00	  135.87	 -333.12	  133.12
     15.2036	  165.00	  135.37	 -323.62	  132.62
     15.2371	  145.00	  134.87	 -343.12	  132.12
     15.2705	  125.00	  134.37	 -362.62	  131.61
     15.3039	  171.00	  133.87	 -316.12	  131.11
     15.3373	  130.00	  133.36	 -356.61	  130.60
     15.3708	  129.00	  132.86	 -357.11	  130.10
     15.4042	  152.00	  132.36	 -333.61	  129.60
     15.4376	  151.00	  131.86	 -334.11	  129.09
     15.4710	  155.00	  131.37	 -329.62	  128.59
     15.5044	  130.00	  130.87	 -354.12	  128.08
     15.5379	  137.00	  130.37	 -346.62	  127.58
     15.5713	  140.00	  129.87	 -343.12	  127.08
     15.6047	  115.00	  129.37	 -367.62	  126.57
     15.6381	  143.00	  128.87	 -339.12	  126.07
     15.6716	  157.00	  128.37	 -324.62	  125.56
     15.7050	  149.00	  127.87	 -332.12	  125.06
     15.7384	  141.00	  127.37	 -339.62	  124.56
     15.7718	  136.00	  126.88	 -344.13	  124.05
     15.8053	  130.00	  126.38	 -349.63	  123.55
     15.8387	  139.00	  125.88	 -340.13	  123.04
     15.8721	  144.00	  125.38	 -334.63	  122.54
     15.9055	  144.00	  124.89	 -334.14	  122.04
     15.9389	  130.00	  124.39	 -347.64	  121.53
     15.9724	  128.00	  123.89	 -349.14	  121.03
     16.0058	  124.00	  123.40	 -352.65	  120.52
     16.0392	  119.00	  122.90	 -357.15	  120.02
     16.0726	  108.00	  122.41	 -367.66	  119.52
     16.1061	  137.00	  121.91	 -338.16	  119.01
     16.1395	  131.00	  121.42	 -343.67	  118.51
     16.1729	  118.00	  120.92	 -356.17	  118.00
     16.2063	  141.00	  120.43	 -332.68	  117.50
     16.2397	  129.00	  119.94	 -344.19	  117.00
     16.2732	  126.00	  119.44	 -346.69	  116.49
     16.3066	  118.00	  118.95	 -354.20	  115.99
     16.3400	  108.00	  118.46	 -363.71	  115.48
     16.3734	  115.00	  117.97	 -356.22	  114.98
     16.4069	  142.00	  117.48	 -328.73	  114.48
     16.4403	  132.00	  116.99	 -338.24	  113.97
     16.4737	  122.00	  116.50	 -347.75	  113.47
     16.5071	   94.00	  116.02	 -375.27	  112.96
     16.5405	  129.00	  115.53	 -339.78	  112.46
     16.5740	  140.00	  115.04	 -328.29	  111.96
     16.6074	  143.00	  114.56	 -324.81	  111.45
     16.6408	  121.00	  114.08	 -346.33	  110.95
     16.6742	  132.00	  113.60	 -334.85	  110.44
     16.7077	  124.00	  113.12	 -342.37	  109.94
     16.7411	  116.00	  112.67	 -349.92	  109.47
     16.7745	  103.00	  112.31	 -362.56	  109.08
     16.8079	  106.00	  111.95	 -359.20	  108.69
     16.8414	  114.00	  111.59	 -350.84	  108.30
     16.8748	  127.00	  111.23	 -337.48	  107.91
     16.9082	  126.00	  110.88	 -338.13	  107.52
     16.9416	  100.00	  110.53	 -363.78	  107.13
     16.9750	  116.00	  110.18	 -347.43	  106.74
     17.0085	  139.00	  109.83	 -324.08	  106.35
     17.0419	  121.00	  109.49	 -341.74	  105.96
     17.0753	  103.00	  109.16	 -359.41	  105.57
     17.1087	  105.00	  108.82	 -357.07	  105.19
     17.1422	  121.00	  108.50	 -340.75	  104.80
     17.1756	  112.00	  108.17	 -349.42	  104.41
     17.2090	  115.00	  107.86	 -346.11	  104.02
     17.2424	  122.00	  107.55	 -338.80	  103.63
     17.2758	  119.00	  107.25	 -341.50	  103.24
     17.3093	  110.00	  106.96	 -350.21	  102.85
     17.3427	  110.00	  106.68	 -349.93	  102.46
     17.3761	  111.00	  106.41	 -348.66	  102.07
     17.4095	  103.00	  106.16	 -356.41	  101.68
     17.4430	   87.00	  105.92	 -372.17	  101.29
     17.4764	  119.00	  105.70	 -339.95	  100.90
     17.5098	  141.00	  105.50	 -317.75	  100.51
     17.5432	  119.00	  105.33	 -339.58	  100.12
     17.5766	  111.00	  105.19	 -347.44	   99.73
     17.6101	   95.00	  105.09	 -363.34	   99.34
     17.6435	  119.00	  105.04	 -339.29	   98.95
     17.6769	  116.00	  105.04	 -342.29	   98.56
     17.7103	  105.00	  105.10	 -353.35	   98.18
     17.7438	  109.00	  105.26	 -349.51	   97.79
     17.7772	  108.00	  105.51	 -350.76	   97.40
     17.8106	  125.00	  105.91	 -334.16	   97.01
     17.8440	  103.00	  106.48	 -356.73	   96.62
     17.8774	   92.00	  107.28	 -368.53	   96.23
     17.9109	  100.00	  108.41	 -361.66	   95.84
     17.9443	  103.00	  109.99	 -360.24	   95.45
     17.9777	  122.00	  112.27	 -343.52	   95.06
     18.0111	   97.00	  115.69	 -371.94	   94.67
     18.0446	  116.00	  120.96	 -358.21	   94.28
     18.0780	  109.00	  129.22	 -373.47	   93.89
     18.1114	  125.00	  141.97	 -370.22	   93.50
     18.1448	  131.00	  160.74	 -382.99	   93.11
     18.1783	  158.00	  186.26	 -381.51	   92.72
     18.2117	  158.00	  216.29	 -411.54	   92.33
     18.2451	  149.00	  242.21	 -446.46	   91.94
     18.2785	  192.00	  250.79	 -412.04	   91.56
     18.3119	  198.00	  237.12	 -392.37	   91.17
     18.3454	  179.00	  209.37	 -383.62	   90.78
     18.3788	  167.00	  179.40	 -365.65	   90.39
     18.4122	  129.00	  154.31	 -378.56	   90.00
     18.4456	  113.00	  135.83	 -376.08	   89.61
     18.4791	  106.00	  123.09	 -370.34	   89.22
     18.5125	  106.00	  114.57	 -361.82	   88.83
     18.5459	  108.00	  108.84	 -354.09	   88.44
     18.5793	  109.00	  104.83	 -349.08	   88.05
     18.6127	  100.00	  101.88	 -355.13	   87.66
     18.6462	  105.00	   99.60	 -347.85	   87.27
     18.6796	   91.00	   97.74	 -359.99	   86.88
     18.7130	  100.00	   96.20	 -349.45	   86.49
     18.7464	   89.00	   94.88	 -359.13	   86.10
     18.7799	   92.00	   93.77	 -355.02	   85.76
     18.8133	   91.00	   92.88	 -355.13	   85.50
     18.8467	   94.00	   92.09	 -351.34	   85.23
     18.8801	  105.00	   91.38	 -339.63	   84.97
     18.9135	  100.00	   90.74	 -343.99	   84.71
     18.9470	   96.00	   90.15	 -347.40	   84.45
     18.9804	  103.00	   89.61	 -339.86	   84.18
     19.0138	   83.00	   89.10	 -359.35	   83.92
     19.0472	   85.00	   88.62	 -356.87	   83.66
     19.0807	   81.00	   88.17	 -360.42	   83.40
     19.1141	   86.00	   87.74	 -354.99	   83.14
     19.1475	  106.00	   87.33	 -334.58	   82.87
     19.1809	   92.00	   86.93	 -348.18	   82.61
     19.2144	   83.00	   86.55	 -356.80	   82.35
     19.2478	   77.00	   86.18	 -362.43	   82.09
     19.2812	   72.00	   85.82	 -367.07	   81.82
     19.3146	   77.00	   85.47	 -361.72	   81.56
     19.3480	   90.00	   85.13	 -348.38	   81.30
     19.3815	   81.00	   84.79	 -357.04	   81.04
     19.4149	   91.00	   84.47	 -346.72	   80.78
     19.4483	  103.00	   84.14	 -334.39	   80.51
     19.4817	   76.00	   83.82	 -361.07	   80.25
     19.5152	   82.00	   83.51	 -354.76	   79.99
     19.5486	   87.00	   83.20	 -349.45	   79.73
     19.5820	   86.00	   82.89	 -350.14	   79.46
     19.6154	   89.00	   82.59	 -346.84	   79.20
     19.6488	   83.00	   82.29	 -352.54	   78.94
     19.6823	   70.00	   81.99	 -365.24	   78.68
     19.7157	   74.00	   81.70	 -360.95	   78.42
     19.7491	   70.00	   81.41	 -364.66	   78.15
     19.7825	   74.00	   81.11	 -360.36	   77.89
     19.8160	   94.00	   80.83	 -340.08	   77.63
     19.8494	   75.00	   80.54	 -358.79	   77.37
     19.8828	   96.00	   80.25	 -337.50	   77.10
     19.9162	   97.00	   79.97	 -336.22	   76.84
     19.9496	   97.00	   79.68	 -335.93	   76.58
     19.9831	   83.00	   79.40	 -349.65	   76.32
     20.0165	   84.00	   79.12	 -348.37	   76.05
     20.0499	   78.00	   78.84	 -354.09	   75.79
     20.0833	   79.00	   78.56	 -352.81	   75.53
     20.1168	   77.00	   78.29	 -354.54	   75.27
     20.1502	   70.00	   78.01	 -361.26	   75.01
     20.1836	   76.00	   77.73	 -354.98	   74.74
     20.2170	   76.00	   77.46	 -354.71	   74.48
     20.2505	   92.00	   77.18	 -338.43	   74.22
     20.2839	   81.00	   76.91	 -349.16	   73.96
     20.3173	   65.00	   76.63	 -364.88	   73.69
     20.3507	   87.00	   76.36	 -342.61	   73.43
     20.3841	   88.00	   76.09	 -341.34	   73.17
     20.4176	   72.00	   75.82	 -357.07	   72.91
     20.4510	   70.00	   75.54	 -358.79	   72.65
     20.4844	   95.00	   75.27	 -333.52	   72.38
     20.5178	   78.00	   75.00	 -350.25	   72.12
     20.5513	   70.00	   74.73	 -357.98	   71.86
     20.5847	   78.00	   74.46	 -349.71	   71.60
     20.6181	   75.00	   74.19	 -352.44	   71.33
     20.6515	   90.00	   73.92	 -337.17	   71.07
     20.6849	   79.00	   73.65	 -347.90	   70.81
     20.7184	   74.00	   73.38	 -352.63	   70.55
     20.7518	   82.00	   73.11	 -344.36	   70.29
     20.7852	   66.00	   72.85	 -360.10	   70.02
     20.8186	   74.00	   72.58	 -351.83	   69.76
     20.8521	   68.00	   72.31	 -357.56	   69.50
     20.8855	   76.00	   72.04	 -349.29	   69.24
     20.9189	   81.00	   71.77	 -344.02	   68.97
     20.9523	   52.00	   71.51	 -372.76	   68.71
     20.9857	   59.00	   71.24	 -365.49	   68.45
     21.0192	   79.00	   70.97	 -345.22	   68.19
     21.0526	   91.00	   70.71	 -332.96	   67.93
     21.0860	   72.00	   70.44	 -351.69	   67.66
     21.1194	   81.00	   70.17	 -342.42	   67.40
     21.1529	   74.00	   69.91	 -349.16	   67.14
     21.1863	   66.00	   69.72	 -356.97	   66.95
     21.2197	   69.00	   69.54	 -353.79	   66.78
     21.2531	   77.00	   69.36	 -345.61	   66.60
     21.2865	   68.00	   69.18	 -354.43	   66.42
     21.3200	   84.00	   69.00	 -338.25	   66.25
     21.3534	   74.00	   68.82	 -348.07	   66.07
     21.3868	   66.00	   68.64	 -355.89	   65.89
     21.4202	   63.00	   68.45	 -358.70	   65.71
     21.4537	   61.00	   68.27	 -360.52	   65.54
     21.4871	   84.00	   68.09	 -337.34	   65.36
     21.5205	   64.00	   67.91	 -357.16	   65.18
     21.5539	   81.00	   67.74	 -339.99	   65.01
     21.5874	   78.00	   67.56	 -342.81	   64.83
     21.6208	   66.00	   67.38	 -354.63	   64.65
     21.6542	   77.00	   67.07	 -343.32	   64.47
     21.6876	   74.00	   66.89	 -346.14	   64.30
     21.7210	   81.00	   66.72	 -338.97	   64.12
     21.7545	   81.00	   66.54	 -338.79	   63.94
     21.7879	   74.00	   66.36	 -345.61	   63.77
     21.8213	   78.00	   66.19	 -341.44	   63.59
     21.8547	   65.00	   66.01	 -354.26	   63.41
     21.8882	   59.00	   65.83	 -360.08	   63.24
     21.9216	   82.00	   65.65	 -336.90	   63.06
     21.9550	   69.00	   65.48	 -349.73	   62.88
     21.9884	   75.00	   65.30	 -343.55	   62.70
     22.0218	   58.00	   65.12	 -360.37	   62.53
     22.0553	   73.00	   64.95	 -345.20	   62.35
     22.0887	   58.00	   64.77	 -360.02	   62.17
     22.1221	   74.00	   64.59	 -343.84	   62.00
     22.1555	   72.00	   64.41	 -345.66	   61.82
     22.1890	   72.00	   64.24	 -345.49	   61.64
     22.2224	   76.00	   64.06	 -341.31	   61.46
     22.2558	   75.00	   63.88	 -342.13	   61.29
     22.2892	   59.00	   63.71	 -357.96	   61.11
     22.3226	   61.00	   63.53	 -355.78	   60.93
     22.3561	   59.00	   63.35	 -357.60	   60.76
     22.3895	   58.00	   63.18	 -358.43	   60.58
     22.4229	   63.00	   63.00	 -353.25	   60.40
     22.4563	   74.00	   62.82	 -342.07	   60.23
     22.4898	   65.00	   62.64	 -350.89	   60.05
     22.5232	   60.00	   62.47	 -355.72	   59.87
     22.5566	   52.00	   62.29	 -363.54	   59.69
     22.5900	   71.00	   62.11	 -344.36	   59.52
     22.6234	   52.00	   61.94	 -363.19	   59.34
     22.6569	   65.00	   61.76	 -350.01	   59.16
     22.6903	   75.00	   61.58	 -339.83	   58.99
     22.7237	   38.00	   61.40	 -376.65	   58.81
     22.7571	   65.00	   61.23	 -349.48	   58.63
     22.7906	   55.00	   61.05	 -359.30	   58.45
     22.8240	   58.00	   60.87	 -356.12	   58.28
     22.8574	   57.00	   60.70	 -356.95	   58.10
     22.8908	   68.00	   60.52	 -345.77	   57.92
     22.9243	   60.00	   60.34	 -353.59	   57.75
     22.9577	   63.00	   60.17	 -350.42	   57.57
     22.9911	   66.00	   59.99	 -347.24	   57.39
     23.0245	   52.00	   59.81	 -361.06	   57.22
     23.0579	   57.00	   59.63	 -355.88	   57.04
     23.0914	   62.00	   59.46	 -350.71	   56.86
     23.1248	   65.00	   59.28	 -347.53	   56.68
     23.1582	   65.00	   59.10	 -347.35	   56.51
     23.1916	   65.00	   58.93	 -347.18	   56.33
     23.2251	   59.00	   58.75	 -353.00	   56.15
     23.2585	   61.00	   58.57	 -350.82	   55.98
     23.2919	   70.00	   58.39	 -341.64	   55.80
     23.3253	   57.00	   58.22	 -354.47	   55.62
     23.3587	   52.00	   58.04	 -359.29	   55.44
     23.3922	   69.00	   57.86	 -342.11	   55.27
     23.4256	   55.00	   57.69	 -355.94	   55.09
     23.4590	   62.00	   57.51	 -348.76	   54.91
     23.4924	   64.00	   57.33	 -346.58	   54.74
     23.5259	   68.00	   57.16	 -342.41	   54.56
     23.5593	   61.00	   56.98	 -349.23	   54.38
     23.5927	   52.00	   56.80	 -358.05	   54.21
     23.6261	   74.00	   56.62	 -335.87	   54.03
     23.6595	   64.00	   56.45	 -345.70	   53.85
     23.6930	   47.00	   56.27	 -362.52	   53.67
     23.7264	   64.00	   56.09	 -345.34	   53.50
     23.7598	   48.00	   55.92	 -361.17	   53.32
     23.7932	   63.00	   55.74	 -345.99	   53.14
     23.8267	   72.00	   55.56	 -336.81	   52.97
     23.8601	   65.00	   55.38	 -343.63	   52.79
     23.8935	   50.00	   55.21	 -358.46	   52.61
     23.9269	   62.00	   55.03	 -346.28	   52.43
     23.9604	   65.00	   54.85	 -343.10	   52.26
     23.9938	   48.00	   54.68	 -359.93	   52.08
     24.0272	   59.00	   54.50	 -348.75	   51.90
     24.0606	   72.00	   54.32	 -335.57	   51.73
     24.0940	   72.00	   54.15	 -335.40	   51.55
     24.1275	   59.00	   53.97	 -348.22	   51.37
     24.1609	   47.00	   53.79	 -360.04	   51.20
     24.1943	   55.00	   53.61	 -351.86	   51.02
     24.2277	   57.00	   53.44	 -349.69	   50.84
     24.2612	   52.00	   53.26	 -354.51	   50.66
     24.2946	   58.00	   53.08	 -348.33	   50.49
     24.3280	   64.00	   52.91	 -342.16	   50.31
     24.3614	   37.00	   52.73	 -368.98	   50.13
     24.3948	   69.00	   52.55	 -336.80	   49.96
     24.4283	   45.00	   52.37	 -360.62	   49.78
     24.4617	   44.00	   52.21	 -361.46	   49.62
     24.4951	   78.00	   52.14	 -327.39	   49.54
     24.5285	   49.00	   52.06	 -356.31	   49.47
     24.5620	   56.00	   51.99	 -349.24	   49.39
     24.5954	   47.00	   51.92	 -358.17	   49.32
     24.6288	   55.00	   51.84	 -350.09	   49.25
     24.6622	   58.00	   51.77	 -347.02	   49.17
     24.6956	   57.00	   51.69	 -347.94	   49.10
     24.7291	   63.00	   51.62	 -341.87	   49.02
     24.7625	   59.00	   51.54	 -345.79	   48.95
     24.7959	   56.00	   51.47	 -348.72	   48.87
     24.8293	   51.00	   51.40	 -353.65	   48.80
     24.8628	   44.00	   51.32	 -360.57	   48.73
     24.8962	   36.00	   51.25	 -368.50	   48.65
     24.9296	   41.00	   51.17	 -363.42	   48.58
     24.9630	   58.00	   51.10	 -346.35	   48.50
     24.9964	   49.00	   51.02	 -355.27	   48.43
     25.0299	   46.00	   50.95	 -358.20	   48.35
     25.0633	   49.00	   50.88	 -355.13	   48.28
     25.0967	   50.00	   50.80	 -354.05	   48.21
     25.1301	   59.00	   50.73	 -344.98	   48.13
     25.1636	   57.00	   50.65	 -346.90	   48.06
     25.1970	   48.00	   50.58	 -355.83	   47.98
     25.2304	   48.00	   50.50	 -355.75	   47.91
     25.2638	   44.00	   50.43	 -359.68	   47.83
     25.2973	   56.00	   50.36	 -347.61	   47.76
     25.3307	   48.00	   50.28	 -355.53	   47.69
     25.3641	   50.00	   50.21	 -353.46	   47.61
     25.3975	   51.00	   50.13	 -352.38	   47.54
     25.4309	   39.00	   50.06	 -364.31	   47.46
     25.4644	   56.00	   49.98	 -347.23	   47.39
     25.4978	   60.00	   49.91	 -343.16	   47.31
     25.5312	   57.00	   49.84	 -346.09	   47.24
     25.5646	   66.00	   49.76	 -337.01	   47.17
     25.5981	   37.00	   49.69	 -365.94	   47.09
     25.6315	   48.00	   49.61	 -354.86	   47.02
     25.6649	   50.00	   49.54	 -352.79	   46.94
     25.6983	   48.00	   49.46	 -354.71	   46.87
     25.7317	   52.00	   49.39	 -350.64	   46.79
     25.7652	   57.00	   49.32	 -345.57	   46.72
     25.7986	   43.00	   49.24	 -359.49	   46.65
     25.8320	   51.00	   49.17	 -351.42	   46.57
     25.8654	   60.00	   49.09	 -342.34	   46.50
     25.8989	   48.00	   49.02	 -354.27	   46.42
     25.9323	   56.00	   48.94	 -346.19	   46.35
     25.9657	   57.00	   48.87	 -345.12	   46.27
     25.9991	   51.00	   48.80	 -351.05	   46.20
     26.0325	   51.00	   48.72	 -350.97	   46.13
     26.0660	   50.00	   48.65	 -351.90	   46.05
     26.0994	   51.00	   48.57	 -350.82	   45.98
     26.1328	   52.00	   48.50	 -349.75	   45.90
     26.1662	   34.00	   48.42	 -367.67	   45.83
     26.1997	   65.00	   48.35	 -336.60	   45.75
     26.2331	   46.00	   48.28	 -355.53	   45.68
     26.2665	   42.00	   48.20	 -359.45	   45.61
     26.2999	   47.00	   48.13	 -354.38	   45.53
     26.3334	   55.00	   48.05	 -346.30	   45.46
     26.3668	   44.00	   47.98	 -357.23	   45.38
     26.4002	   50.00	   47.90	 -351.15	   45.31
     26.4336	   46.00	   47.83	 -355.08	   45.23
     26.4670	   46.00	   47.76	 -355.01	   45.16
     26.5005	   51.00	   47.68	 -349.93	   45.09
     26.5339	   42.00	   47.61	 -358.86	   45.01
     26.5673	   48.00	   47.53	 -352.78	   44.94
     26.6007	   28.00	   47.46	 -372.71	   44.86
     26.6342	   38.00	   47.38	 -362.63	   44.79
     26.6676	   46.00	   47.31	 -354.56	   44.71
     26.7010	   51.00	   47.60	 -349.85	   44.64
     26.7344	   44.00	   47.53	 -356.78	   44.56
     26.7678	   61.00	   47.46	 -339.71	   44.49
     26.8013	   58.00	   47.58	 -342.83	   44.42
     26.8347	   37.00	   47.52	 -363.77	   44.34
     26.8681	   52.00	   47.46	 -348.71	   44.27
     26.9015	   57.00	   47.40	 -343.65	   44.19
     26.9350	   46.00	   47.33	 -354.58	   44.12
     26.9684	   47.00	   47.27	 -353.52	   44.04
     27.0018	   50.00	   47.21	 -350.46	   43.97
     27.0352	   48.00	   47.15	 -352.40	   43.90
     27.0686	   52.00	   47.09	 -348.34	   43.82
     27.1021	   43.00	   47.03	 -357.28	   43.75
     27.1355	   43.00	   46.98	 -357.23	   43.67
     27.1689	   42.00	   46.92	 -358.17	   43.60
     27.2023	   41.00	   46.86	 -359.11	   43.52
     27.2358	   46.00	   46.80	 -354.05	   43.45
     27.2692	   60.00	   46.75	 -340.00	   43.38
     27.3026	   37.00	   46.69	 -362.94	   43.30
     27.3360	   41.00	   46.64	 -358.89	   43.23
     27.3694	   47.00	   46.58	 -352.83	   43.15
     27.4029	   47.00	   46.53	 -352.78	   43.08
     27.4363	   51.00	   46.48	 -348.73	   43.00
     27.4697	   44.00	   46.42	 -355.67	   42.93
     27.5031	   54.00	   46.37	 -345.62	   42.86
     27.5366	   54.00	   46.32	 -345.57	   42.78
     27.5700	   38.00	   46.26	 -361.51	   42.69
     27.6034	   38.00	   46.20	 -361.45	   42.60
     27.6368	   56.00	   46.13	 -343.38	   42.51
     27.6703	   44.00	   46.07	 -355.32	   42.42
     27.7037	   56.00	   46.00	 -343.25	   42.32
     27.7371	   43.00	   45.94	 -356.19	   42.23
     27.7705	   34.00	   45.88	 -365.13	   42.14
     27.8039	   33.00	   45.82	 -366.07	   42.04
     27.8374	   43.00	   45.76	 -356.01	   41.95
     27.8708	   48.00	   45.71	 -350.96	   41.86
     27.9042	   46.00	   45.65	 -352.90	   41.77
     27.9376	   70.00	   45.60	 -328.85	   41.67
     27.9711	   29.00	   45.55	 -369.80	   41.58
     28.0045	   49.00	   45.50	 -349.75	   41.49
     28.0379	   59.00	   45.46	 -339.71	   41.39
     28.0713	   36.00	   45.41	 -362.66	   41.30
     28.1047	   45.00	   45.37	 -353.62	   41.21
     28.1382	   44.00	   45.33	 -354.58	   41.12
     28.1716	   35.00	   45.30	 -363.55	   41.02
     28.2050	   56.00	   45.27	 -342.52	   40.93
     28.2384	   36.00	   45.24	 -362.49	   40.84
     28.2719	   37.00	   45.21	 -361.46	   40.74
     28.3053	   44.00	   45.19	 -354.44	   40.65
     28.3387	   45.00	   45.17	 -353.42	   40.56
     28.3721	   47.00	   45.16	 -351.41	   40.47
