 Fe3O4   Chi2:  4.3285  CELL:    8.39564   8.39564   8.39564   90.0000   90.0000   90.0000   SPGR: 227:1                  TEMP:      0.00
  1   2543     1.54060     1.54439     0.00000     0.13521     0.00000    0
    60     0     1
       0.00000      28.00000
 2Theta	Yobs	Ycal	Yobs-Ycal	Backg	Posr	(hkl)	K
     15.0232	  146.00	   53.98	 -498.50	   50.44
     15.0566	  148.00	   53.94	 -498.50	   50.40
     15.0901	  140.00	   53.90	 -498.50	   50.36
     15.1235	  144.00	   53.86	 -498.50	   50.32
     15.1569	  151.00	   53.82	 -498.50	   50.28
     15.1903	  159.00	   53.78	 -498.50	   50.24
     15.2237	  124.00	   53.74	 -498.50	   50.20
     15.2572	  158.00	   53.70	 -498.50	   50.16
     15.2906	  143.00	   53.66	 -498.50	   50.12
     15.3240	  143.00	   53.62	 -498.50	   50.08
     15.3574	  139.00	   53.58	 -498.50	   50.04
     15.3909	  145.00	   53.54	 -498.50	   50.00
     15.4243	  126.00	   53.50	 -498.50	   49.96
     15.4577	  132.00	   53.46	 -498.50	   49.92
     15.4911	  150.00	   53.42	 -498.50	   49.88
     15.5245	  129.00	   53.38	 -498.50	   49.84
     15.5580	  142.00	   53.34	 -498.50	   49.80
     15.5914	  133.00	   53.30	 -498.50	   49.76
     15.6248	  136.00	   53.26	 -498.50	   49.72
     15.6582	  140.00	   53.22	 -498.50	   49.68
     15.6917	  138.00	   53.18	 -498.50	   49.64
     15.7251	  132.00	   53.14	 -498.50	   49.60
     15.7585	  125.00	   53.10	 -498.50	   49.56
     15.7919	  119.00	   53.06	 -498.50	   49.52
     15.8254	  129.00	   53.02	 -498.50	   49.48
     15.8588	  112.00	   52.98	 -498.50	   49.44
     15.8922	  127.00	   52.94	 -498.50	   49.40
     15.9256	  118.00	   52.90	 -498.50	   49.36
     15.9590	  110.00	   52.86	 -498.50	   49.32
     15.9925	  113.00	   52.82	 -498.50	   49.28
     16.0259	  130.00	   52.78	 -498.50	   49.24
     16.0593	  142.00	   52.74	 -498.50	   49.20
     16.0927	  106.00	   52.70	 -498.50	   49.16
     16.1262	  119.00	   52.66	 -498.50	   49.12
     16.1596	  122.00	   52.62	 -498.50	   49.08
     16.1930	  124.00	   52.58	 -498.50	   49.04
     16.2264	  137.00	   52.54	 -498.50	   49.00
     16.2598	  131.00	   52.50	 -498.50	   48.96
     16.2933	  106.00	   52.46	 -498.50	   48.92
     16.3267	  122.00	   52.42	 -498.50	   48.88
     16.3601	  126.00	   52.38	 -498.50	   48.84
     16.3935	  130.00	   52.34	 -498.50	   48.80
     16.4270	  109.00	   52.30	 -498.50	   48.76
     16.4604	  128.00	   52.26	 -498.50	   48.72
     16.4938	  127.00	   52.22	 -498.50	   48.68
     16.5272	  110.00	   52.18	 -498.50	   48.64
     16.5606	  136.00	   52.14	 -498.50	   48.60
     16.5941	  104.00	   52.10	 -498.50	   48.56
     16.6275	  117.00	   52.06	 -498.50	   48.52
     16.6609	  114.00	   52.02	 -498.50	   48.48
     16.6943	  125.00	   51.98	 -498.50	   48.44
     16.7278	  111.00	   51.94	 -498.50	   48.41
     16.7612	  100.00	   51.90	 -498.50	   48.37
     16.7946	  109.00	   51.86	 -498.50	   48.33
     16.8280	  109.00	   51.83	 -498.50	   48.29
     16.8615	  104.00	   51.79	 -498.50	   48.25
     16.8949	  104.00	   51.75	 -498.50	   48.21
     16.9283	  112.00	   51.71	 -498.50	   48.17
     16.9617	  110.00	   51.67	 -498.50	   48.13
     16.9951	  111.00	   51.63	 -498.50	   48.09
     17.0286	  108.00	   51.59	 -498.50	   48.05
     17.0620	  113.00	   51.55	 -498.50	   48.01
     17.0954	   94.00	   51.51	 -498.50	   47.97
     17.1288	  112.00	   51.47	 -498.50	   47.93
     17.1623	  100.00	   51.43	 -498.50	   47.89
     17.1957	  106.00	   51.39	 -498.50	   47.86
     17.2291	  116.00	   51.35	 -498.50	   47.82
     17.2625	   91.00	   51.32	 -498.50	   47.78
     17.2959	  105.00	   51.28	 -498.50	   47.74
     17.3294	  100.00	   51.24	 -498.50	   47.70
     17.3628	  117.00	   51.20	 -498.50	   47.66
     17.3962	   95.00	   51.16	 -498.50	   47.62
     17.4296	   85.00	   51.12	 -498.50	   47.58
     17.4631	  103.00	   51.08	 -498.50	   47.54
     17.4965	   94.00	   51.04	 -498.50	   47.50
     17.5299	   89.00	   51.00	 -498.50	   47.46
     17.5633	  126.00	   50.96	 -498.50	   47.43
     17.5967	  115.00	   50.93	 -498.50	   47.39
     17.6302	   81.00	   50.89	 -498.50	   47.35
     17.6636	   88.00	   50.85	 -498.50	   47.31
     17.6970	   96.00	   50.81	 -498.50	   47.27
     17.7304	  102.00	   50.77	 -498.50	   47.23
     17.7639	  101.00	   50.73	 -498.50	   47.19
     17.7973	  116.00	   50.69	 -498.50	   47.15
     17.8307	  105.00	   50.65	 -498.50	   47.12
     17.8641	   84.00	   50.61	 -498.50	   47.08
     17.8975	   95.00	   50.58	 -498.50	   47.04
     17.9310	  114.00	   50.54	 -498.50	   47.00
     17.9644	   83.00	   50.50	 -498.50	   46.96
     17.9978	   81.00	   50.46	 -498.50	   46.92
     18.0312	  122.00	   50.42	 -498.50	   46.88
     18.0647	   85.00	   50.38	 -498.50	   46.84
     18.0981	  122.00	   50.34	 -498.50	   46.81
     18.1315	   82.00	   50.31	 -498.50	   46.77
     18.1649	   66.00	   50.27	 -498.50	   46.73
     18.1984	   89.00	   50.23	 -498.50	   46.69
     18.2318	   83.00	   50.19	 -498.50	   46.65
     18.2652	  118.00	   50.15	 -498.50	   46.61
     18.2986	  102.00	   50.11	 -498.50	   46.57
     18.3320	  103.00	   50.07	 -498.50	   46.54
     18.3655	  180.00	   50.04	 -498.50	   46.50
     18.3989	  218.00	   50.00	 -498.50	   46.46
     18.4323	  222.00	   49.96	 -498.50	   46.42
     18.4657	  229.00	   49.92	 -498.50	   46.38
     18.4992	  179.00	   49.88	 -498.50	   46.34
     18.5326	  128.00	   49.84	 -498.50	   46.31
     18.5660	  108.00	   49.81	 -498.50	   46.27
     18.5994	   81.00	   49.77	 -498.50	   46.23
     18.6328	  105.00	   49.73	 -498.50	   46.19
     18.6663	   91.00	   49.69	 -498.50	   46.15
     18.6997	  116.00	   49.65	 -498.50	   46.11
     18.7331	   74.00	   49.61	 -498.50	   46.08
     18.7665	  108.00	   49.58	 -498.50	   46.04
     18.8000	   77.00	   49.54	 -498.50	   46.00
     18.8334	   91.00	   49.50	 -498.50	   45.96
     18.8668	   92.00	   49.46	 -498.50	   45.92
     18.9002	   87.00	   49.42	 -498.50	   45.89
     18.9336	   95.00	   49.39	 -498.50	   45.85
     18.9671	   81.00	   49.35	 -498.50	   45.81
     19.0005	   88.00	   49.31	 -498.50	   45.77
     19.0339	   76.00	   49.27	 -498.50	   45.73
     19.0673	   74.00	   49.23	 -498.50	   45.70
     19.1008	   87.00	   49.20	 -498.50	   45.66
     19.1342	   87.00	   49.16	 -498.50	   45.62
     19.1676	  101.00	   49.12	 -498.50	   45.58
     19.2010	   85.00	   49.08	 -498.50	   45.54
     19.2345	   83.00	   49.04	 -498.50	   45.51
     19.2679	   83.00	   49.01	 -498.50	   45.47
     19.3013	   89.00	   48.97	 -498.50	   45.43
     19.3347	   79.00	   48.93	 -498.50	   45.39
     19.3681	   77.00	   48.89	 -498.50	   45.35
     19.4016	   90.00	   48.85	 -498.50	   45.32
     19.4350	   99.00	   48.82	 -498.50	   45.28
     19.4684	   92.00	   48.78	 -498.50	   45.24
     19.5018	   71.00	   48.74	 -498.50	   45.20
     19.5353	   81.00	   48.70	 -498.50	   45.17
     19.5687	   88.00	   48.67	 -498.50	   45.13
     19.6021	   86.00	   48.63	 -498.50	   45.09
     19.6355	   83.00	   48.59	 -498.50	   45.05
     19.6689	   77.00	   48.55	 -498.50	   45.01
     19.7024	   76.00	   48.51	 -498.50	   44.98
     19.7358	   85.00	   48.48	 -498.50	   44.94
     19.7692	   75.00	   48.44	 -498.50	   44.90
     19.8026	  100.00	   48.40	 -498.50	   44.86
     19.8361	   70.00	   48.36	 -498.50	   44.83
     19.8695	   72.00	   48.33	 -498.50	   44.79
     19.9029	   83.00	   48.29	 -498.50	   44.75
     19.9363	   70.00	   48.25	 -498.50	   44.71
     19.9697	   69.00	   48.21	 -498.50	   44.68
     20.0032	   70.00	   48.18	 -498.50	   44.64
     20.0366	   75.00	   48.14	 -498.50	   44.60
     20.0700	   77.00	   48.10	 -498.50	   44.56
     20.1034	   87.00	   48.07	 -498.50	   44.53
     20.1369	   77.00	   48.03	 -498.50	   44.49
     20.1703	   69.00	   47.99	 -498.50	   44.45
     20.2037	   64.00	   47.95	 -498.50	   44.41
     20.2371	   65.00	   47.92	 -498.50	   44.38
     20.2705	   79.00	   47.88	 -498.50	   44.34
     20.3040	   78.00	   47.84	 -498.50	   44.30
     20.3374	   61.00	   47.80	 -498.50	   44.27
     20.3708	   71.00	   47.77	 -498.50	   44.23
     20.4042	   70.00	   47.73	 -498.50	   44.19
     20.4377	   87.00	   47.69	 -498.50	   44.15
     20.4711	   84.00	   47.66	 -498.50	   44.12
     20.5045	   88.00	   47.62	 -498.50	   44.08
     20.5379	   97.00	   47.58	 -498.50	   44.04
     20.5714	   72.00	   47.54	 -498.50	   44.01
     20.6048	   59.00	   47.51	 -498.50	   43.97
     20.6382	   77.00	   47.47	 -498.50	   43.93
     20.6716	   68.00	   47.43	 -498.50	   43.89
     20.7050	   76.00	   47.40	 -498.50	   43.86
     20.7385	   66.00	   47.36	 -498.50	   43.82
     20.7719	   70.00	   47.32	 -498.50	   43.78
     20.8053	   76.00	   47.28	 -498.50	   43.75
     20.8387	   77.00	   47.25	 -498.50	   43.71
     20.8722	   69.00	   47.21	 -498.50	   43.67
     20.9056	   73.00	   47.17	 -498.50	   43.64
     20.9390	   68.00	   47.14	 -498.50	   43.60
     20.9724	   77.00	   47.10	 -498.50	   43.56
     21.0058	   73.00	   47.06	 -498.50	   43.53
     21.0393	   63.00	   47.03	 -498.50	   43.49
     21.0727	   83.00	   46.99	 -498.50	   43.45
     21.1061	   58.00	   46.95	 -498.50	   43.42
     21.1395	   72.00	   46.92	 -498.50	   43.38
     21.1730	   59.00	   46.88	 -498.50	   43.34
     21.2064	   62.00	   46.84	 -498.50	   43.31
     21.2398	   65.00	   46.81	 -498.50	   43.27
     21.2732	   52.00	   46.77	 -498.50	   43.23
     21.3066	   59.00	   46.73	 -498.50	   43.20
     21.3401	   74.00	   46.70	 -498.50	   43.16
     21.3735	   69.00	   46.66	 -498.50	   43.12
     21.4069	   69.00	   46.62	 -498.50	   43.09
     21.4403	   54.00	   46.59	 -498.50	   43.05
     21.4738	   68.00	   46.55	 -498.50	   43.01
     21.5072	   57.00	   46.51	 -498.50	   42.98
     21.5406	   73.00	   46.48	 -498.50	   42.94
     21.5740	   75.00	   46.44	 -498.50	   42.90
     21.6075	   69.00	   46.40	 -498.50	   42.87
     21.6409	   50.00	   46.37	 -498.50	   42.83
     21.6743	   69.00	   46.33	 -498.50	   42.79
     21.7077	   75.00	   46.30	 -498.50	   42.76
     21.7411	   65.00	   46.26	 -498.50	   42.72
     21.7746	   75.00	   46.22	 -498.50	   42.68
     21.8080	   55.00	   46.19	 -498.50	   42.65
     21.8414	   49.00	   46.15	 -498.50	   42.61
     21.8748	   66.00	   46.11	 -498.50	   42.58
     21.9083	   72.00	   46.08	 -498.50	   42.54
     21.9417	   68.00	   46.04	 -498.50	   42.50
     21.9751	   65.00	   46.01	 -498.50	   42.47
     22.0085	   56.00	   45.97	 -498.50	   42.43
     22.0419	   58.00	   45.93	 -498.50	   42.39
     22.0754	   56.00	   45.90	 -498.50	   42.36
     22.1088	   74.00	   45.86	 -498.50	   42.32
     22.1422	   63.00	   45.82	 -498.50	   42.29
     22.1756	   76.00	   45.79	 -498.50	   42.25
     22.2091	   46.00	   45.75	 -498.50	   42.21
     22.2425	   56.00	   45.72	 -498.50	   42.18
     22.2759	   74.00	   45.68	 -498.50	   42.14
     22.3093	   85.00	   45.64	 -498.50	   42.11
     22.3427	   72.00	   45.61	 -498.50	   42.07
     22.3762	   55.00	   45.57	 -498.50	   42.03
     22.4096	   63.00	   45.54	 -498.50	   42.00
     22.4430	   75.00	   45.50	 -498.50	   41.96
     22.4764	   65.00	   45.46	 -498.50	   41.93
     22.5099	   55.00	   45.43	 -498.50	   41.89
     22.5433	   56.00	   45.39	 -498.50	   41.85
     22.5767	   46.00	   45.36	 -498.50	   41.82
     22.6101	   52.00	   45.32	 -498.50	   41.78
     22.6436	   63.00	   45.28	 -498.50	   41.75
     22.6770	   66.00	   45.25	 -498.50	   41.71
     22.7104	   72.00	   45.21	 -498.50	   41.68
     22.7438	   69.00	   45.18	 -498.50	   41.64
     22.7772	   51.00	   45.14	 -498.50	   41.60
     22.8107	   58.00	   45.11	 -498.50	   41.57
     22.8441	   66.00	   45.07	 -498.50	   41.53
     22.8775	   60.00	   45.03	 -498.50	   41.50
     22.9109	   63.00	   45.00	 -498.50	   41.46
     22.9444	   71.00	   44.96	 -498.50	   41.43
     22.9778	   63.00	   44.93	 -498.50	   41.39
     23.0112	   62.00	   44.89	 -498.50	   41.35
     23.0446	   57.00	   44.86	 -498.50	   41.32
     23.0780	   58.00	   44.82	 -498.50	   41.28
     23.1115	   51.00	   44.79	 -498.50	   41.25
     23.1449	   74.00	   44.75	 -498.50	   41.21
     23.1783	   64.00	   44.71	 -498.50	   41.18
     23.2117	   72.00	   44.68	 -498.50	   41.14
     23.2452	   88.00	   44.64	 -498.50	   41.11
     23.2786	   66.00	   44.61	 -498.50	   41.07
     23.3120	   94.00	   44.57	 -498.50	   41.03
     23.3454	   70.00	   44.54	 -498.50	   41.00
     23.3788	   68.00	   44.50	 -498.50	   40.96
     23.4123	   57.00	   44.47	 -498.50	   40.93
     23.4457	   47.00	   44.43	 -498.50	   40.89
     23.4791	   65.00	   44.40	 -498.50	   40.86
     23.5125	   50.00	   44.36	 -498.50	   40.82
     23.5460	   61.00	   44.33	 -498.50	   40.79
     23.5794	   43.00	   44.29	 -498.50	   40.75
     23.6128	   55.00	   44.26	 -498.50	   40.72
     23.6462	   60.00	   44.22	 -498.50	   40.68
     23.6796	   47.00	   44.19	 -498.50	   40.65
     23.7131	   54.00	   44.15	 -498.50	   40.61
     23.7465	   51.00	   44.11	 -498.50	   40.58
     23.7799	   61.00	   44.08	 -498.50	   40.54
     23.8133	   47.00	   44.04	 -498.50	   40.51
     23.8468	   50.00	   44.01	 -498.50	   40.47
     23.8802	   65.00	   43.97	 -498.50	   40.44
     23.9136	   55.00	   43.94	 -498.50	   40.40
     23.9470	   54.00	   43.90	 -498.50	   40.37
     23.9805	   61.00	   43.87	 -498.50	   40.33
     24.0139	   48.00	   43.83	 -498.50	   40.30
     24.0473	   55.00	   43.80	 -498.50	   40.26
     24.0807	   58.00	   43.76	 -498.50	   40.23
     24.1141	   56.00	   43.73	 -498.50	   40.19
     24.1476	   65.00	   43.69	 -498.50	   40.16
     24.1810	   48.00	   43.66	 -498.50	   40.12
     24.2144	   48.00	   43.63	 -498.50	   40.09
     24.2478	   57.00	   43.59	 -498.50	   40.05
     24.2813	   62.00	   43.56	 -498.50	   40.02
     24.3147	   62.00	   43.52	 -498.50	   39.98
     24.3481	   48.00	   43.49	 -498.50	   39.95
     24.3815	   41.00	   43.45	 -498.50	   39.91
     24.4149	   48.00	   43.42	 -498.50	   39.88
     24.4484	   50.00	   43.38	 -498.50	   39.84
     24.4818	   36.00	   43.35	 -498.50	   39.81
     24.5152	   61.00	   43.31	 -498.50	   39.77
     24.5486	   37.00	   43.28	 -498.50	   39.74
     24.5821	   44.00	   43.24	 -498.50	   39.71
     24.6155	   46.00	   43.21	 -498.50	   39.67
     24.6489	   37.00	   43.17	 -498.50	   39.64
     24.6823	   49.00	   43.14	 -498.50	   39.60
     24.7157	   47.00	   43.10	 -498.50	   39.57
     24.7492	   48.00	   43.07	 -498.50	   39.53
     24.7826	   52.00	   43.04	 -498.50	   39.50
     24.8160	   49.00	   43.00	 -498.50	   39.46
     24.8494	   43.00	   42.97	 -498.50	   39.43
     24.8829	   49.00	   42.93	 -498.50	   39.39
     24.9163	   49.00	   42.90	 -498.50	   39.36
     24.9497	   43.00	   42.86	 -498.50	   39.33
     24.9831	   44.00	   42.83	 -498.50	   39.29
     25.0166	   55.00	   42.80	 -498.50	   39.26
     25.0500	   47.00	   42.76	 -498.50	   39.22
     25.0834	   58.00	   42.73	 -498.50	   39.19
     25.1168	   43.00	   42.69	 -498.50	   39.15
     25.1502	   56.00	   42.66	 -498.50	   39.12
     25.1837	   46.00	   42.62	 -498.50	   39.09
     25.2171	   35.00	   42.59	 -498.50	   39.05
     25.2505	   47.00	   42.56	 -498.50	   39.02
     25.2839	   49.00	   42.52	 -498.50	   38.98
     25.3174	   61.00	   42.49	 -498.50	   38.95
     25.3508	   55.00	   42.45	 -498.50	   38.91
     25.3842	   55.00	   42.42	 -498.50	   38.88
     25.4176	   33.00	   42.38	 -498.50	   38.85
     25.4510	   50.00	   42.35	 -498.50	   38.81
     25.4845	   44.00	   42.32	 -498.50	   38.78
     25.5179	   34.00	   42.28	 -498.50	   38.74
     25.5513	   58.00	   42.25	 -498.50	   38.71
     25.5847	   48.00	   42.21	 -498.50	   38.68
     25.6182	   45.00	   42.18	 -498.50	   38.64
     25.6516	   60.00	   42.15	 -498.50	   38.61
     25.6850	   34.00	   42.11	 -498.50	   38.57
     25.7184	   46.00	   42.08	 -498.50	   38.54
     25.7518	   48.00	   42.04	 -498.50	   38.51
     25.7853	   55.00	   42.01	 -498.50	   38.47
     25.8187	   41.00	   41.98	 -498.50	   38.44
     25.8521	   49.00	   41.94	 -498.50	   38.40
     25.8855	   43.00	   41.91	 -498.50	   38.37
     25.9190	   57.00	   41.88	 -498.50	   38.34
     25.9524	   51.00	   41.84	 -498.50	   38.30
     25.9858	   57.00	   41.81	 -498.50	   38.27
     26.0192	   45.00	   41.77	 -498.50	   38.24
     26.0526	   44.00	   41.74	 -498.50	   38.20
     26.0861	   55.00	   41.71	 -498.50	   38.17
     26.1195	   55.00	   41.67	 -498.50	   38.14
     26.1529	   51.00	   41.64	 -498.50	   38.10
     26.1863	   43.00	   41.61	 -498.50	   38.07
     26.2198	   44.00	   41.57	 -498.50	   38.03
     26.2532	   65.00	   41.54	 -498.50	   38.00
     26.2866	   34.00	   41.51	 -498.50	   37.97
     26.3200	   47.00	   41.47	 -498.50	   37.93
     26.3535	   54.00	   41.44	 -498.50	   37.90
     26.3869	   52.00	   41.40	 -498.50	   37.87
     26.4203	   42.00	   41.37	 -498.50	   37.83
     26.4537	   38.00	   41.34	 -498.50	   37.80
     26.4871	   39.00	   41.30	 -498.50	   37.77
     26.5206	   47.00	   41.27	 -498.50	   37.73
     26.5540	   47.00	   41.24	 -498.50	   37.70
     26.5874	   49.00	   41.20	 -498.50	   37.67
     26.6208	   51.00	   41.17	 -498.50	   37.63
     26.6543	   54.00	   41.14	 -498.50	   37.60
     26.6877	   57.00	   41.10	 -498.50	   37.57
     26.7211	   52.00	   41.07	 -498.50	   37.53
     26.7545	   36.00	   41.04	 -498.50	   37.50
     26.7879	   33.00	   41.00	 -498.50	   37.47
     26.8214	   39.00	   40.97	 -498.50	   37.43
     26.8548	   45.00	   40.94	 -498.50	   37.40
     26.8882	   49.00	   40.90	 -498.50	   37.37
     26.9216	   44.00	   40.87	 -498.50	   37.33
     26.9551	   42.00	   40.84	 -498.50	   37.30
     26.9885	   32.00	   40.81	 -498.50	   37.27
     27.0219	   46.00	   40.77	 -498.50	   37.23
     27.0553	   42.00	   40.74	 -498.50	   37.20
     27.0887	   52.00	   40.71	 -498.50	   37.17
     27.1222	   44.00	   40.67	 -498.50	   37.13
     27.1556	   50.00	   40.64	 -498.50	   37.10
     27.1890	   58.00	   40.61	 -498.50	   37.07
     27.2224	   32.00	   40.57	 -498.50	   37.04
     27.2559	   45.00	   40.54	 -498.50	   37.00
     27.2893	   42.00	   40.51	 -498.50	   36.97
     27.3227	   35.00	   40.47	 -498.50	   36.94
     27.3561	   48.00	   40.44	 -498.50	   36.90
     27.3895	   44.00	   40.41	 -498.50	   36.87
     27.4230	   46.00	   40.38	 -498.50	   36.84
     27.4564	   51.00	   40.34	 -498.50	   36.81
     27.4898	   41.00	   40.31	 -498.50	   36.77
     27.5232	   39.00	   40.28	 -498.50	   36.74
     27.5567	   35.00	   40.24	 -498.50	   36.71
     27.5901	   45.00	   40.21	 -498.50	   36.67
     27.6235	   36.00	   40.18	 -498.50	   36.64
     27.6569	   39.00	   40.15	 -498.50	   36.61
     27.6904	   38.00	   40.11	 -498.50	   36.58
     27.7238	   42.00	   40.08	 -498.50	   36.54
     27.7572	   42.00	   40.05	 -498.50	   36.51
     27.7906	   43.00	   40.02	 -498.50	   36.48
     27.8240	   49.00	   39.98	 -498.50	   36.45
     27.8575	   52.00	   39.95	 -498.50	   36.41
     27.8909	   42.00	   39.92	 -498.50	   36.38
     27.9243	   38.00	   39.89	 -498.50	   36.35
     27.9577	   38.00	   39.85	 -498.50	   36.31
     27.9912	   38.00	   39.82	 -498.50	   36.28
     28.0246	   45.00	   40.15	 -493.65	   36.25
     28.0580	   37.00	   40.13	 -501.63	   36.22
     28.0914	   44.00	   40.11	 -494.61	   36.19
     28.1248	   58.00	   40.09	 -480.59	   36.15
     28.1583	   47.00	   40.07	 -491.57	   36.12
     28.1917	   50.00	   40.05	 -488.55	   36.09
     28.2251	   36.00	   40.04	 -502.54	   36.06
     28.2585	   41.00	   40.02	 -497.52	   36.02
     28.2920	   43.00	   40.00	 -495.50	   35.99
     28.3254	   47.00	   39.99	 -491.49	   35.96
     28.3588	   41.00	   39.97	 -497.47	   35.93
     28.3922	   51.00	   39.96	 -487.46	   35.89
