 Fe3O4   Chi2:  1.6377  CELL:    8.39468   8.39468   8.39468   90.0000   90.0000   90.0000   SPGR: 227:1                  TEMP:      0.00
  1   2543     1.54060     1.54439     0.00000     0.02449     0.00000    0
    94     0     1
       0.00000      28.00000
 2Theta	Yobs	Ycal	Yobs-Ycal	Backg	Posr	(hkl)	K
     15.0232	 158.000	  58.316	-153.500	  55.179
     15.0566	 145.000	  58.266	-153.500	  55.128
     15.0901	 154.000	  58.216	-153.500	  55.078
     15.1235	 155.000	  58.165	-153.500	  55.028
     15.1569	 157.000	  58.115	-153.500	  54.978
     15.1903	 162.000	  58.065	-153.500	  54.928
     15.2237	 150.000	  58.015	-153.500	  54.877
     15.2572	 158.000	  57.965	-153.500	  54.827
     15.2906	 139.000	  57.915	-153.500	  54.777
     15.3240	 143.000	  57.865	-153.500	  54.727
     15.3574	 144.000	  57.815	-153.500	  54.677
     15.3909	 129.000	  57.765	-153.500	  54.627
     15.4243	 155.000	  57.715	-153.500	  54.577
     15.4577	 146.000	  57.665	-153.500	  54.527
     15.4911	 154.000	  57.615	-153.500	  54.478
     15.5245	 138.000	  57.565	-153.500	  54.428
     15.5580	 136.000	  57.515	-153.500	  54.378
     15.5914	 132.000	  57.466	-153.500	  54.328
     15.6248	 154.000	  57.416	-153.500	  54.278
     15.6582	 149.000	  57.366	-153.500	  54.229
     15.6917	 125.000	  57.316	-153.500	  54.179
     15.7251	 124.000	  57.267	-153.500	  54.129
     15.7585	 153.000	  57.217	-153.500	  54.079
     15.7919	 155.000	  57.167	-153.500	  54.030
     15.8254	 165.000	  57.118	-153.500	  53.980
     15.8588	 124.000	  57.068	-153.500	  53.931
     15.8922	 150.000	  57.019	-153.500	  53.881
     15.9256	 146.000	  56.969	-153.500	  53.832
     15.9590	 141.000	  56.920	-153.500	  53.782
     15.9925	 135.000	  56.870	-153.500	  53.733
     16.0259	 137.000	  56.821	-153.500	  53.683
     16.0593	 136.000	  56.771	-153.500	  53.634
     16.0927	 129.000	  56.722	-153.500	  53.584
     16.1262	 114.000	  56.672	-153.500	  53.535
     16.1596	  96.000	  56.623	-153.500	  53.486
     16.1930	 142.000	  56.574	-153.500	  53.436
     16.2264	 116.000	  56.525	-153.500	  53.387
     16.2598	 115.000	  56.475	-153.500	  53.338
     16.2933	 125.000	  56.426	-153.500	  53.289
     16.3267	 100.000	  56.377	-153.500	  53.239
     16.3601	 117.000	  56.328	-153.500	  53.190
     16.3935	 119.000	  56.279	-153.500	  53.141
     16.4270	 135.000	  56.229	-153.500	  53.092
     16.4604	 109.000	  56.180	-153.500	  53.043
     16.4938	 138.000	  56.131	-153.500	  52.994
     16.5272	 114.000	  56.082	-153.500	  52.945
     16.5606	 128.000	  56.033	-153.500	  52.896
     16.5941	 135.000	  55.984	-153.500	  52.847
     16.6275	 100.000	  55.935	-153.500	  52.798
     16.6609	 121.000	  55.886	-153.500	  52.749
     16.6943	 123.000	  55.837	-153.500	  52.700
     16.7278	 133.000	  55.789	-153.500	  52.651
     16.7612	 115.000	  55.740	-153.500	  52.602
     16.7946	 122.000	  55.691	-153.500	  52.554
     16.8280	 141.000	  55.642	-153.500	  52.505
     16.8615	 118.000	  55.593	-153.500	  52.456
     16.8949	 116.000	  55.545	-153.500	  52.407
     16.9283	 139.000	  55.496	-153.500	  52.359
     16.9617	 122.000	  55.447	-153.500	  52.310
     16.9951	 124.000	  55.399	-153.500	  52.261
     17.0286	 116.000	  55.350	-153.500	  52.213
     17.0620	 125.000	  55.301	-153.500	  52.164
     17.0954	 111.000	  55.253	-153.500	  52.115
     17.1288	 116.000	  55.204	-153.500	  52.067
     17.1623	 117.000	  55.156	-153.500	  52.018
     17.1957	 130.000	  55.107	-153.500	  51.970
     17.2291	 115.000	  55.059	-153.500	  51.921
     17.2625	 138.000	  55.011	-153.500	  51.873
     17.2959	 113.000	  54.962	-153.500	  51.825
     17.3294	 126.000	  54.914	-153.500	  51.776
     17.3628	 117.000	  54.865	-153.500	  51.728
     17.3962	 106.000	  54.817	-153.500	  51.680
     17.4296	 115.000	  54.769	-153.500	  51.631
     17.4631	 128.000	  54.721	-153.500	  51.583
     17.4965	 117.000	  54.672	-153.500	  51.535
     17.5299	  92.000	  54.624	-153.500	  51.487
     17.5633	 110.000	  54.576	-153.500	  51.438
     17.5967	  98.000	  54.528	-153.500	  51.390
     17.6302	 128.000	  54.480	-153.500	  51.342
     17.6636	 133.000	  54.432	-153.500	  51.294
     17.6970	  86.000	  54.384	-153.500	  51.246
     17.7304	 115.000	  54.335	-153.500	  51.198
     17.7639	 106.000	  54.287	-153.500	  51.150
     17.7973	 100.000	  54.239	-153.500	  51.102
     17.8307	  88.000	  54.192	-153.500	  51.054
     17.8641	 122.000	  54.144	-153.500	  51.006
     17.8975	 109.000	  54.096	-153.500	  50.958
     17.9310	 102.000	  54.048	-153.500	  50.910
     17.9644	 105.000	  54.000	-153.500	  50.862
     17.9978	 108.000	  53.952	-153.500	  50.815
     18.0312	  91.000	  53.904	-153.500	  50.767
     18.0647	 116.000	  53.857	-153.500	  50.719
     18.0981	 144.000	  53.809	-153.500	  50.671
     18.1315	 121.000	  53.761	-153.500	  50.624
     18.1649	 111.000	  53.713	-153.500	  50.576
     18.1984	 139.000	  53.666	-153.500	  50.528
     18.2318	 128.000	  53.618	-153.500	  50.481
     18.2652	 131.000	  53.571	-153.500	  50.433
     18.2986	 161.000	  53.523	-153.500	  50.386
     18.3320	 108.000	  53.476	-153.500	  50.338
     18.3655	 133.000	  53.428	-153.500	  50.291
     18.3989	 136.000	  53.380	-153.500	  50.243
     18.4323	 128.000	  53.333	-153.500	  50.196
     18.4657	 113.000	  53.286	-153.500	  50.148
     18.4992	 111.000	  53.238	-153.500	  50.101
     18.5326	 131.000	  53.191	-153.500	  50.053
     18.5660	 130.000	  53.143	-153.500	  50.006
     18.5994	  86.000	  53.096	-153.500	  49.959
     18.6328	  94.000	  53.049	-153.500	  49.911
     18.6663	 108.000	  53.002	-153.500	  49.864
     18.6997	 110.000	  52.954	-153.500	  49.817
     18.7331	 100.000	  52.907	-153.500	  49.770
     18.7665	 102.000	  52.860	-153.500	  49.722
     18.8000	  94.000	  52.813	-153.500	  49.675
     18.8334	 101.000	  52.766	-153.500	  49.628
     18.8668	  94.000	  52.719	-153.500	  49.581
     18.9002	 103.000	  52.672	-153.500	  49.534
     18.9336	  92.000	  52.624	-153.500	  49.487
     18.9671	 101.000	  52.577	-153.500	  49.440
     19.0005	 101.000	  52.530	-153.500	  49.393
     19.0339	 101.000	  52.483	-153.500	  49.346
     19.0673	  83.000	  52.437	-153.500	  49.299
     19.1008	  88.000	  52.390	-153.500	  49.252
     19.1342	  94.000	  52.343	-153.500	  49.205
     19.1676	  85.000	  52.296	-153.500	  49.158
     19.2010	  81.000	  52.249	-153.500	  49.112
     19.2345	 104.000	  52.202	-153.500	  49.065
     19.2679	  88.000	  52.156	-153.500	  49.018
     19.3013	  84.000	  52.109	-153.500	  48.971
     19.3347	  82.000	  52.062	-153.500	  48.925
     19.3681	  65.000	  52.015	-153.500	  48.878
     19.4016	 109.000	  51.969	-153.500	  48.831
     19.4350	  82.000	  51.922	-153.500	  48.785
     19.4684	  78.000	  51.876	-153.500	  48.738
     19.5018	  89.000	  51.829	-153.500	  48.691
     19.5353	  83.000	  51.782	-153.500	  48.645
     19.5687	  95.000	  51.736	-153.500	  48.598
     19.6021	 108.000	  51.689	-153.500	  48.552
     19.6355	 100.000	  51.643	-153.500	  48.505
     19.6689	  90.000	  51.596	-153.500	  48.459
     19.7024	  89.000	  51.550	-153.500	  48.413
     19.7358	  90.000	  51.504	-153.500	  48.366
     19.7692	  94.000	  51.457	-153.500	  48.320
     19.8026	  81.000	  51.411	-153.500	  48.274
     19.8361	 100.000	  51.365	-153.500	  48.227
     19.8695	  82.000	  51.318	-153.500	  48.181
     19.9029	  75.000	  51.272	-153.500	  48.135
     19.9363	  76.000	  51.226	-153.500	  48.088
     19.9697	  81.000	  51.180	-153.500	  48.042
     20.0032	  65.000	  51.134	-153.500	  47.996
     20.0366	  83.000	  51.087	-153.500	  47.950
     20.0700	  74.000	  51.041	-153.500	  47.904
     20.1034	  68.000	  50.995	-153.500	  47.858
     20.1369	  97.000	  50.949	-153.500	  47.812
     20.1703	  69.000	  50.903	-153.500	  47.766
     20.2037	  78.000	  50.857	-153.500	  47.720
     20.2371	  70.000	  50.811	-153.500	  47.674
     20.2705	  72.000	  50.765	-153.500	  47.628
     20.3040	  78.000	  50.719	-153.500	  47.582
     20.3374	  75.000	  50.674	-153.500	  47.536
     20.3708	  76.000	  50.628	-153.500	  47.490
     20.4042	  82.000	  50.582	-153.500	  47.444
     20.4377	  76.000	  50.536	-153.500	  47.399
     20.4711	  65.000	  50.490	-153.500	  47.353
     20.5045	  74.000	  50.444	-153.500	  47.307
     20.5379	  86.000	  50.399	-153.500	  47.261
     20.5714	  73.000	  50.353	-153.500	  47.216
     20.6048	  84.000	  50.307	-153.500	  47.170
     20.6382	  82.000	  50.262	-153.500	  47.124
     20.6716	  78.000	  50.216	-153.500	  47.079
     20.7050	 105.000	  50.171	-153.500	  47.033
     20.7385	  88.000	  50.125	-153.500	  46.988
     20.7719	  76.000	  50.080	-153.500	  46.942
     20.8053	  88.000	  50.034	-153.500	  46.897
     20.8387	  82.000	  49.989	-153.500	  46.851
     20.8722	  72.000	  49.943	-153.500	  46.806
     20.9056	  81.000	  49.898	-153.500	  46.760
     20.9390	  73.000	  49.852	-153.500	  46.715
     20.9724	  88.000	  49.807	-153.500	  46.669
     21.0058	  79.000	  49.762	-153.500	  46.624
     21.0393	  77.000	  49.716	-153.500	  46.579
     21.0727	  76.000	  49.671	-153.500	  46.534
     21.1061	  89.000	  49.626	-153.500	  46.488
     21.1395	  90.000	  49.581	-153.500	  46.443
     21.1730	  78.000	  49.535	-153.500	  46.398
     21.2064	  81.000	  49.490	-153.500	  46.353
     21.2398	  70.000	  49.445	-153.500	  46.308
     21.2732	  79.000	  49.400	-153.500	  46.262
     21.3066	  76.000	  49.355	-153.500	  46.217
     21.3401	  69.000	  49.310	-153.500	  46.172
     21.3735	  72.000	  49.265	-153.500	  46.127
     21.4069	  73.000	  49.220	-153.500	  46.082
     21.4403	  60.000	  49.175	-153.500	  46.037
     21.4738	  77.000	  49.130	-153.500	  45.992
     21.5072	  95.000	  49.085	-153.500	  45.947
     21.5406	  66.000	  49.040	-153.500	  45.903
     21.5740	  71.000	  48.995	-153.500	  45.858
     21.6075	  81.000	  48.950	-153.500	  45.813
     21.6409	  81.000	  48.905	-153.500	  45.768
     21.6743	  84.000	  48.861	-153.500	  45.723
     21.7077	  81.000	  48.816	-153.500	  45.678
     21.7411	  79.000	  48.771	-153.500	  45.634
     21.7746	  64.000	  48.727	-153.500	  45.589
     21.8080	  66.000	  48.682	-153.500	  45.544
     21.8414	  76.000	  48.637	-153.500	  45.500
     21.8748	  87.000	  48.593	-153.500	  45.455
     21.9083	  74.000	  48.548	-153.500	  45.411
     21.9417	  62.000	  48.503	-153.500	  45.366
     21.9751	  69.000	  48.459	-153.500	  45.321
     22.0085	  74.000	  48.414	-153.500	  45.277
     22.0419	  71.000	  48.370	-153.500	  45.232
     22.0754	  69.000	  48.325	-153.500	  45.188
     22.1088	  83.000	  48.281	-153.500	  45.144
     22.1422	  71.000	  48.237	-153.500	  45.099
     22.1756	  76.000	  48.192	-153.500	  45.055
     22.2091	  86.000	  48.148	-153.500	  45.010
     22.2425	  65.000	  48.104	-153.500	  44.966
     22.2759	  82.000	  48.059	-153.500	  44.922
     22.3093	  62.000	  48.015	-153.500	  44.878
     22.3427	  70.000	  47.971	-153.500	  44.833
     22.3762	  85.000	  47.927	-153.500	  44.789
     22.4096	  66.000	  47.882	-153.500	  44.745
     22.4430	  45.000	  47.838	-153.500	  44.701
     22.4764	  72.000	  47.794	-153.500	  44.657
     22.5099	  55.000	  47.750	-153.500	  44.613
     22.5433	  52.000	  47.706	-153.500	  44.569
     22.5767	  61.000	  47.662	-153.500	  44.525
     22.6101	  78.000	  47.618	-153.500	  44.481
     22.6436	  75.000	  47.574	-153.500	  44.437
     22.6770	  75.000	  47.530	-153.500	  44.393
     22.7104	  63.000	  47.486	-153.500	  44.349
     22.7438	  66.000	  47.442	-153.500	  44.305
     22.7772	  65.000	  47.398	-153.500	  44.261
     22.8107	  61.000	  47.355	-153.500	  44.217
     22.8441	  56.000	  47.311	-153.500	  44.173
     22.8775	  73.000	  47.267	-153.500	  44.129
     22.9109	  59.000	  47.223	-153.500	  44.086
     22.9444	  69.000	  47.179	-153.500	  44.042
     22.9778	  59.000	  47.136	-153.500	  43.998
     23.0112	  65.000	  47.092	-153.500	  43.955
     23.0446	  79.000	  47.048	-153.500	  43.911
     23.0780	  61.000	  47.005	-153.500	  43.867
     23.1115	  72.000	  46.961	-153.500	  43.824
     23.1449	  59.000	  46.918	-153.500	  43.780
     23.1783	  61.000	  46.874	-153.500	  43.737
     23.2117	  68.000	  46.831	-153.500	  43.693
     23.2452	  63.000	  46.787	-153.500	  43.650
     23.2786	  60.000	  46.744	-153.500	  43.606
     23.3120	  63.000	  46.700	-153.500	  43.563
     23.3454	  68.000	  46.657	-153.500	  43.519
     23.3788	  70.000	  46.613	-153.500	  43.476
     23.4123	  68.000	  46.570	-153.500	  43.433
     23.4457	  64.000	  46.527	-153.500	  43.389
     23.4791	  72.000	  46.483	-153.500	  43.346
     23.5125	  58.000	  46.440	-153.500	  43.303
     23.5460	  70.000	  46.397	-153.500	  43.259
     23.5794	  63.000	  46.354	-153.500	  43.216
     23.6128	  60.000	  46.311	-153.500	  43.173
     23.6462	  68.000	  46.267	-153.500	  43.130
     23.6796	  71.000	  46.224	-153.500	  43.087
     23.7131	  54.000	  46.181	-153.500	  43.044
     23.7465	  62.000	  46.138	-153.500	  43.001
     23.7799	  58.000	  46.095	-153.500	  42.958
     23.8133	  58.000	  46.052	-153.500	  42.915
     23.8468	  64.000	  46.009	-153.500	  42.872
     23.8802	  74.000	  45.966	-153.500	  42.829
     23.9136	  65.000	  45.923	-153.500	  42.786
     23.9470	  77.000	  45.880	-153.500	  42.743
     23.9805	  61.000	  45.837	-153.500	  42.700
     24.0139	  64.000	  45.795	-153.500	  42.657
     24.0473	  57.000	  45.752	-153.500	  42.614
     24.0807	  50.000	  45.709	-153.500	  42.571
     24.1141	  65.000	  45.666	-153.500	  42.529
     24.1476	  77.000	  45.623	-153.500	  42.486
     24.1810	  68.000	  45.581	-153.500	  42.443
     24.2144	  68.000	  45.538	-153.500	  42.401
     24.2478	  84.000	  45.495	-153.500	  42.358
     24.2813	  69.000	  45.453	-153.500	  42.315
     24.3147	  60.000	  45.410	-153.500	  42.273
     24.3481	  66.000	  45.368	-153.500	  42.230
     24.3815	  65.000	  45.325	-153.500	  42.188
     24.4149	  75.000	  45.283	-153.500	  42.145
     24.4484	  50.000	  45.240	-153.500	  42.103
     24.4818	  60.000	  45.198	-153.500	  42.060
     24.5152	  72.000	  45.155	-153.500	  42.018
     24.5486	  49.000	  45.113	-153.500	  41.975
     24.5821	  51.000	  45.070	-153.500	  41.933
     24.6155	  60.000	  45.028	-153.500	  41.890
     24.6489	  69.000	  44.986	-153.500	  41.848
     24.6823	  50.000	  44.943	-153.500	  41.806
     24.7157	  51.000	  44.901	-153.500	  41.764
     24.7492	  65.000	  44.859	-153.500	  41.721
     24.7826	  64.000	  44.817	-153.500	  41.679
     24.8160	  62.000	  44.774	-153.500	  41.637
     24.8494	  57.000	  44.732	-153.500	  41.595
     24.8829	  59.000	  44.690	-153.500	  41.553
     24.9163	  65.000	  44.648	-153.500	  41.511
     24.9497	  62.000	  44.606	-153.500	  41.468
     24.9831	  77.000	  44.564	-153.500	  41.426
     25.0166	  57.000	  44.522	-153.500	  41.384
     25.0500	  57.000	  44.480	-153.500	  41.342
     25.0834	  64.000	  44.438	-153.500	  41.300
     25.1168	  63.000	  44.396	-153.500	  41.259
     25.1502	  43.000	  44.354	-153.500	  41.217
     25.1837	  74.000	  44.312	-153.500	  41.175
     25.2171	  64.000	  44.270	-153.500	  41.133
     25.2505	  58.000	  44.229	-153.500	  41.091
     25.2839	  68.000	  44.187	-153.500	  41.049
     25.3174	  58.000	  44.145	-153.500	  41.007
     25.3508	  56.000	  44.103	-153.500	  40.966
     25.3842	  55.000	  44.061	-153.500	  40.924
     25.4176	  55.000	  44.020	-153.500	  40.882
     25.4510	  39.000	  43.978	-153.500	  40.841
     25.4845	  46.000	  43.936	-153.500	  40.799
     25.5179	  59.000	  43.895	-153.500	  40.757
     25.5513	  49.000	  43.853	-153.500	  40.716
     25.5847	  61.000	  43.812	-153.500	  40.674
     25.6182	  49.000	  43.770	-153.500	  40.633
     25.6516	  57.000	  43.729	-153.500	  40.591
     25.6850	  44.000	  43.687	-153.500	  40.550
     25.7184	  63.000	  43.646	-153.500	  40.508
     25.7518	  52.000	  43.604	-153.500	  40.467
     25.7853	  45.000	  43.563	-153.500	  40.426
     25.8187	  55.000	  43.522	-153.500	  40.384
     25.8521	  52.000	  43.480	-153.500	  40.343
     25.8855	  49.000	  43.439	-153.500	  40.302
     25.9190	  52.000	  43.398	-153.500	  40.260
     25.9524	  60.000	  43.356	-153.500	  40.219
     25.9858	  64.000	  43.315	-153.500	  40.178
     26.0192	  49.000	  43.274	-153.500	  40.137
     26.0526	  64.000	  43.233	-153.500	  40.095
     26.0861	  59.000	  43.192	-153.500	  40.054
     26.1195	  54.000	  43.151	-153.500	  40.013
     26.1529	  48.000	  43.110	-153.500	  39.972
     26.1863	  50.000	  43.069	-153.500	  39.931
     26.2198	  46.000	  43.027	-153.500	  39.890
     26.2532	  55.000	  42.986	-153.500	  39.849
     26.2866	  65.000	  42.945	-153.500	  39.808
     26.3200	  59.000	  42.905	-153.500	  39.767
     26.3535	  62.000	  42.864	-153.500	  39.726
     26.3869	  52.000	  42.823	-153.500	  39.685
     26.4203	  61.000	  42.782	-153.500	  39.644
     26.4537	  44.000	  42.741	-153.500	  39.604
     26.4871	  54.000	  42.700	-153.500	  39.563
     26.5206	  57.000	  42.659	-153.500	  39.522
     26.5540	  43.000	  42.619	-153.500	  39.481
     26.5874	  52.000	  42.578	-153.500	  39.441
     26.6208	  58.000	  42.537	-153.500	  39.400
     26.6543	  55.000	  42.497	-153.500	  39.359
     26.6877	  48.000	  42.456	-153.500	  39.318
     26.7211	  51.000	  42.415	-153.500	  39.278
     26.7545	  49.000	  42.375	-153.500	  39.237
     26.7879	  49.000	  42.334	-153.500	  39.197
     26.8214	  47.000	  42.294	-153.500	  39.156
     26.8548	  65.000	  42.253	-153.500	  39.116
     26.8882	  61.000	  42.213	-153.500	  39.075
     26.9216	  43.000	  42.172	-153.500	  39.035
     26.9551	  48.000	  42.132	-153.500	  38.994
     26.9885	  52.000	  42.091	-153.500	  38.954
     27.0219	  54.000	  42.051	-153.500	  38.914
     27.0553	  70.000	  42.011	-153.500	  38.873
     27.0887	  44.000	  41.970	-153.500	  38.833
     27.1222	  54.000	  41.930	-153.500	  38.793
     27.1556	  49.000	  41.890	-153.500	  38.752
     27.1890	  48.000	  41.850	-153.500	  38.712
     27.2224	  51.000	  41.809	-153.500	  38.672
     27.2559	  56.000	  41.769	-153.500	  38.632
     27.2893	  56.000	  41.729	-153.500	  38.592
     27.3227	  57.000	  41.689	-153.500	  38.552
     27.3561	  54.000	  41.649	-153.500	  38.511
     27.3895	  62.000	  41.609	-153.500	  38.471
     27.4230	  49.000	  41.569	-153.500	  38.431
     27.4564	  72.000	  41.529	-153.500	  38.391
     27.4898	  56.000	  41.489	-153.500	  38.351
     27.5232	  56.000	  41.449	-153.500	  38.311
     27.5567	  39.000	  41.409	-153.500	  38.271
     27.5901	  58.000	  41.369	-153.500	  38.232
     27.6235	  58.000	  41.329	-153.500	  38.192
     27.6569	  60.000	  41.289	-153.500	  38.152
     27.6904	  61.000	  41.250	-153.500	  38.112
     27.7238	  48.000	  41.210	-153.500	  38.072
     27.7572	  49.000	  41.170	-153.500	  38.033
     27.7906	  52.000	  41.130	-153.500	  37.993
     27.8240	  44.000	  41.091	-153.500	  37.953
     27.8575	  57.000	  41.051	-153.500	  37.913
     27.8909	  55.000	  41.011	-153.500	  37.874
     27.9243	  37.000	  40.972	-153.500	  37.834
     27.9577	  65.000	  40.932	-153.500	  37.795
     27.9912	  49.000	  40.892	-153.500	  37.755
     28.0246	  56.000	  47.434	-144.934	  37.715
     28.0580	  48.000	  47.559	-153.059	  37.676
     28.0914	  39.000	  47.693	-162.193	  37.636
     28.1248	  58.000	  47.834	-143.334	  37.597
     28.1583	  63.000	  47.983	-138.483	  37.558
     28.1917	  59.000	  48.142	-142.642	  37.518
     28.2251	  59.000	  48.310	-142.810	  37.479
     28.2585	  65.000	  48.488	-136.988	  37.439
     28.2920	  59.000	  48.676	-143.176	  37.400
     28.3254	  57.000	  48.877	-145.377	  37.361
     28.3588	  49.000	  49.089	-153.589	  37.322
     28.3922	  56.000	  49.315	-146.815	  37.282
